scansci Spectrometer Data File
--- Measurement Setting ---
Type: Sample Spectrum
Date: Wed May 26 15:25:04 2021
User: (Reserved by scansci)
Serial: (Reserved by scansci)
Channel: No. 11
Integration Time: 282
Average: 1
Boxcar: 0
Electrical Dark: No-corrected
Time Normalize: (Reserved by scansci)
Dual-beam: (Reserved by scansci)
Reference Ch: (Reserved by scansci)
--- Measurement Data ---
Pixel   Wavelength   Intensity
    0        162.5          913
    1      162.985          916
    2      163.469          909
    3      163.954          907
    4      164.439          915
    5      164.923          922
    6      165.408          918
    7      165.892          908
    8      166.377          907
    9      166.861          920
   10      167.345          925
   11       167.83          921
   12      168.314          913
   13      168.798          905
   14      169.282          902
   15      169.766          902
   16       170.25          897
   17      170.734          895
   18      171.218          893
   19      171.702          886
   20      172.185          887
   21      172.669          898
   22      173.153          900
   23      173.636          905
   24       174.12          912
   25      174.603          940
   26      175.087          954
   27       175.57          939
   28      176.053          935
   29      176.537          931
   30       177.02          919
   31      177.503          908
   32      177.986          899
   33      178.469          904
   34      178.952          924
   35      179.435          923
   36      179.918          919
   37      180.401          918
   38      180.884          897
   39      181.366          882
   40      181.849          882
   41      182.332          881
   42      182.814          888
   43      183.297          893
   44      183.779          894
   45      184.262          892
   46      184.744          892
   47      185.226          893
   48      185.708          899
   49      186.191          911
   50      186.673          908
   51      187.155          901
   52      187.637          901
   53      188.119          900
   54        188.6          902
   55      189.082          907
   56      189.564          913
   57      190.046          908
   58      190.527          902
   59      191.009          894
   60      191.491          900
   61      191.972          915
   62      192.454          915
   63      192.935          910
   64      193.416          908
   65      193.897          920
   66      194.379          941
   67       194.86          934
   68      195.341          922
   69      195.822          916
   70      196.303          905
   71      196.784          915
   72      197.265          919
   73      197.746          909
   74      198.226          903
   75      198.707          904
   76      199.188          917
   77      199.668          925
   78      200.149          925
   79      200.629          927
   80       201.11          921
   81       201.59          921
   82       202.07          922
   83       202.55          923
   84      203.031          918
   85      203.511          912
   86      203.991          910
   87      204.471          905
   88      204.951          907
   89      205.431          909
   90       205.91          908
   91       206.39          909
   92       206.87          904
   93      207.349          900
   94      207.829          906
   95      208.309          912
   96      208.788          909
   97      209.267          897
   98      209.747          898
   99      210.226          897
  100      210.705          899
  101      211.185          906
  102      211.664          907
  103      212.143          905
  104      212.622          897
  105      213.101          893
  106      213.579          896
  107      214.058          900
  108      214.537          908
  109      215.016          913
  110      215.494          915
  111      215.973          921
  112      216.452          921
  113       216.93          914
  114      217.408          913
  115      217.887          908
  116      218.365          906
  117      218.843          910
  118      219.321          911
  119      219.799          913
  120      220.278          909
  121      220.755          916
  122      221.233          919
  123      221.711          916
  124      222.189          917
  125      222.667          909
  126      223.144          903
  127      223.622          896
  128        224.1          901
  129      224.577          920
  130      225.055          924
  131      225.532          917
  132      226.009          910
  133      226.486          902
  134      226.964          901
  135      227.441          897
  136      227.918          899
  137      228.395          904
  138      228.872          908
  139      229.349          905
  140      229.826          904
  141      230.302          904
  142      230.779          900
  143      231.256          906
  144      231.732          907
  145      232.209          901
  146      232.685          901
  147      233.162          901
  148      233.638          905
  149      234.114          904
  150       234.59          901
  151      235.066          905
  152      235.543          911
  153      236.019          912
  154      236.495          916
  155       236.97          918
  156      237.446          919
  157      237.922          920
  158      238.398          916
  159      238.873          912
  160      239.349          913
  161      239.824          912
  162        240.3          912
  163      240.775          905
  164      241.251          901
  165      241.726          905
  166      242.201          905
  167      242.676          909
  168      243.151          912
  169      243.626          912
  170      244.101          913
  171      244.576          909
  172      245.051          903
  173      245.526          902
  174          246          898
  175      246.475          902
  176       246.95          905
  177      247.424          901
  178      247.899          905
  179      248.373          909
  180      248.847          915
  181      249.321          917
  182      249.796          908
  183       250.27          905
  184      250.744          902
  185      251.218          901
  186      251.692          902
  187      252.166          908
  188      252.639          920
  189      253.113          915
  190      253.587          902
  191       254.06          897
  192      254.534          900
  193      255.007          904
  194      255.481          904
  195      255.954          909
  196      256.427          909
  197      256.901          903
  198      257.374          908
  199      257.847          906
  200       258.32          903
  201      258.793          906
  202      259.266          905
  203      259.739          904
  204      260.211          902
  205      260.684          912
  206      261.157          920
  207      261.629          913
  208      262.102          908
  209      262.574          902
  210      263.046          908
  211      263.519          914
  212      263.991          916
  213      264.463          913
  214      264.935          913
  215      265.407          915
  216      265.879          918
  217      266.351          922
  218      266.823          909
  219      267.295          892
  220      267.766          888
  221      268.238          893
  222       268.71          893
  223      269.181          903
  224      269.653          912
  225      270.124          909
  226      270.595          901
  227      271.066          899
  228      271.538          901
  229      272.009          897
  230       272.48          898
  231      272.951          902
  232      273.422          907
  233      273.892          910
  234      274.363          915
  235      274.834          911
  236      275.305          905
  237      275.775          904
  238      276.246          899
  239      276.716          892
  240      277.186          903
  241      277.657          917
  242      278.127          914
  243      278.597          909
  244      279.067          908
  245      279.537          917
  246      280.007          914
  247      280.477          908
  248      280.947          907
  249      281.417          907
  250      281.886          904
  251      282.356          899
  252      282.825          906
  253      283.295          909
  254      283.764          912
  255      284.234          913
  256      284.703          914
  257      285.172          915
  258      285.641          913
  259       286.11          899
  260      286.579          891
  261      287.048          894
  262      287.517          895
  263      287.986          897
  264      288.454          904
  265      288.923          908
  266      289.392          911
  267       289.86          910
  268      290.329          905
  269      290.797          895
  270      291.265          901
  271      291.734          904
  272      292.202          893
  273       292.67          897
  274      293.138          903
  275      293.606          900
  276      294.074          897
  277      294.541          900
  278      295.009          903
  279      295.477          906
  280      295.944          906
  281      296.412          909
  282      296.879          907
  283      297.347          904
  284      297.814          901
  285      298.281          902
  286      298.749          914
  287      299.216          919
  288      299.683          908
  289       300.15          905
  290      300.616          907
  291      301.083          904
  292       301.55          908
  293      302.017          919
  294      302.483          926
  295       302.95          923
  296      303.416          912
  297      303.883          911
  298      304.349          915
  299      304.815          911
  300      305.281          907
  301      305.748          913
  302      306.214          911
  303       306.68          910
  304      307.146          912
  305      307.611          917
  306      308.077          923
  307      308.543          926
  308      309.008          919
  309      309.474          914
  310      309.939          916
  311      310.405          914
  312       310.87          913
  313      311.335          925
  314        311.8          969
  315      312.266         1065
  316      312.731         1205
  317      313.196         1293
  318       313.66         1267
  319      314.125         1180
  320       314.59         1086
  321      315.055         1017
  322      315.519          977
  323      315.984          955
  324      316.448          940
  325      316.913          928
  326      317.377          920
  327      317.841          917
  328      318.305          923
  329      318.769          925
  330      319.233          923
  331      319.697          916
  332      320.161          915
  333      320.625          918
  334      321.089          922
  335      321.552          922
  336      322.016          914
  337      322.479          926
  338      322.943          933
  339      323.406          912
  340      323.869          906
  341      324.333          914
  342      324.796          918
  343      325.259          908
  344      325.722          905
  345      326.185          908
  346      326.647          910
  347       327.11          919
  348      327.573          923
  349      328.035          920
  350      328.498          916
  351       328.96          909
  352      329.423          911
  353      329.885          912
  354      330.347          904
  355       330.81          902
  356      331.272          905
  357      331.734          900
  358      332.196          893
  359      332.657          899
  360      333.119          911
  361      333.581          932
  362      334.043          962
  363      334.504          967
  364      334.966          960
  365      335.427          946
  366      335.888          928
  367       336.35          913
  368      336.811          917
  369      337.272          926
  370      337.733          925
  371      338.194          921
  372      338.655          919
  373      339.115          912
  374      339.576          916
  375      340.037          920
  376      340.497          916
  377      340.958          913
  378      341.418          914
  379      341.879          909
  380      342.339          905
  381      342.799          898
  382      343.259          914
  383      343.719          928
  384      344.179          917
  385      344.639          915
  386      345.099          910
  387      345.559          901
  388      346.018          905
  389      346.478          917
  390      346.937          910
  391      347.397          904
  392      347.856          911
  393      348.315          914
  394      348.774          921
  395      349.234          919
  396      349.693          916
  397      350.152          909
  398       350.61          901
  399      351.069          907
  400      351.528          921
  401      351.987          922
  402      352.445          925
  403      352.904          923
  404      353.362          917
  405       353.82          912
  406      354.279          905
  407      354.737          917
  408      355.195          936
  409      355.653          929
  410      356.111          919
  411      356.569          913
  412      357.027          915
  413      357.484          917
  414      357.942          909
  415      358.399          903
  416      358.857          909
  417      359.314          913
  418      359.772          919
  419      360.229          925
  420      360.686          930
  421      361.143          928
  422        361.6          925
  423      362.057          930
  424      362.514          935
  425      362.971          940
  426      363.427          963
  427      363.884         1016
  428       364.34         1241
  429      364.797         1904
  430      365.253         2677
  431      365.709         2817
  432      366.166         2388
  433      366.622         1919
  434      367.078         1574
  435      367.534         1329
  436       367.99         1176
  437      368.445         1078
  438      368.901         1016
  439      369.357          990
  440      369.812          972
  441      370.268          953
  442      370.723          942
  443      371.179          927
  444      371.634          915
  445      372.089          910
  446      372.544          915
  447      372.999          928
  448      373.454          929
  449      373.909          918
  450      374.364          912
  451      374.818          908
  452      375.273          909
  453      375.727          910
  454      376.182          904
  455      376.636          900
  456       377.09          902
  457      377.545          902
  458      377.999          903
  459      378.453          911
  460      378.907          916
  461      379.361          915
  462      379.814          909
  463      380.268          919
  464      380.722          925
  465      381.175          921
  466      381.629          913
  467      382.082          911
  468      382.535          913
  469      382.989          911
  470      383.442          910
  471      383.895          916
  472      384.348          922
  473      384.801          920
  474      385.253          921
  475      385.706          914
  476      386.159          907
  477      386.611          906
  478      387.064          905
  479      387.516          903
  480      387.968          905
  481      388.421          905
  482      388.873          904
  483      389.325          902
  484      389.777          897
  485      390.229          899
  486      390.681          901
  487      391.132          903
  488      391.584          914
  489      392.035          919
  490      392.487          911
  491      392.938          913
  492       393.39          918
  493      393.841          918
  494      394.292          914
  495      394.743          908
  496      395.194          909
  497      395.645          903
  498      396.096          903
  499      396.546          907
  500      396.997          913
  501      397.448          911
  502      397.898          913
  503      398.349          920
  504      398.799          909
  505      399.249          912
  506      399.699          920
  507      400.149          919
  508      400.599          916
  509      401.049          916
  510      401.499          921
  511      401.949          926
  512      402.398          925
  513      402.848          928
  514      403.297          949
  515      403.747         1030
  516      404.196         1313
  517      404.645         1878
  518      405.094         2295
  519      405.543         2149
  520      405.992         1736
  521      406.441         1416
  522       406.89         1229
  523      407.339         1122
  524      407.787         1080
  525      408.236         1063
  526      408.684         1034
  527      409.132          997
  528      409.581          971
  529      410.029          956
  530      410.477          943
  531      410.925          931
  532      411.373          925
  533      411.821          929
  534      412.269          932
  535      412.716          941
  536      413.164          961
  537      413.611          971
  538      414.059          953
  539      414.506          944
  540      414.953          940
  541        415.4          944
  542      415.847          944
  543      416.294          938
  544      416.741          940
  545      417.188          946
  546      417.635          936
  547      418.081          924
  548      418.528          921
  549      418.974          925
  550      419.421          932
  551      419.867          939
  552      420.313          947
  553      420.759          946
  554      421.205          935
  555      421.651          930
  556      422.097          926
  557      422.543          917
  558      422.989          920
  559      423.434          914
  560       423.88          905
  561      424.325          908
  562       424.77          905
  563      425.216          900
  564      425.661          905
  565      426.106          918
  566      426.551          929
  567      426.996          940
  568       427.44          945
  569      427.885          937
  570       428.33          932
  571      428.774          934
  572      429.219          927
  573      429.663          936
  574      430.107          948
  575      430.551          947
  576      430.996          949
  577       431.44          955
  578      431.883          952
  579      432.327          948
  580      432.771          950
  581      433.215          958
  582      433.658          970
  583      434.102         1014
  584      434.545         1133
  585      434.988         1449
  586      435.431         2583
  587      435.875         4939
  588      436.318         6690
  589      436.761         6071
  590      437.203         4300
  591      437.646         2968
