scansci Spectrometer Data File
--- Measurement Setting ---
Type: Sample Spectrum
Date: Wed May 26 15:33:13 2021
User: (Reserved by scansci)
Serial: (Reserved by scansci)
Channel: No. 11
Integration Time: 222
Average: 1
Boxcar: 0
Electrical Dark: No-corrected
Time Normalize: (Reserved by scansci)
Dual-beam: (Reserved by scansci)
Reference Ch: (Reserved by scansci)
--- Measurement Data ---
Pixel   Wavelength   Intensity
    0        162.5          839
    1      162.985          842
    2      163.469          845
    3      163.954          847
    4      164.439          861
    5      164.923          868
    6      165.408          855
    7      165.892          848
    8      166.377          850
    9      166.861          864
   10      167.345          869
   11       167.83          860
   12      168.314          856
   13      168.798          855
   14      169.282          853
   15      169.766          852
   16       170.25          845
   17      170.734          843
   18      171.218          846
   19      171.702          849
   20      172.185          857
   21      172.669          862
   22      173.153          855
   23      173.636          855
   24       174.12          860
   25      174.603          879
   26      175.087          886
   27       175.57          857
   28      176.053          845
   29      176.537          844
   30       177.02          836
   31      177.503          835
   32      177.986          832
   33      178.469          827
   34      178.952          840
   35      179.435          849
   36      179.918          854
   37      180.401          851
   38      180.884          836
   39      181.366          834
   40      181.849          838
   41      182.332          840
   42      182.814          845
   43      183.297          848
   44      183.779          840
   45      184.262          832
   46      184.744          835
   47      185.226          840
   48      185.708          841
   49      186.191          840
   50      186.673          842
   51      187.155          844
   52      187.637          837
   53      188.119          836
   54        188.6          843
   55      189.082          846
   56      189.564          851
   57      190.046          850
   58      190.527          857
   59      191.009          856
   60      191.491          849
   61      191.972          843
   62      192.454          844
   63      192.935          848
   64      193.416          853
   65      193.897          857
   66      194.379          875
   67       194.86          880
   68      195.341          862
   69      195.822          847
   70      196.303          835
   71      196.784          841
   72      197.265          849
   73      197.746          844
   74      198.226          843
   75      198.707          844
   76      199.188          850
   77      199.668          849
   78      200.149          846
   79      200.629          842
   80       201.11          845
   81       201.59          849
   82       202.07          843
   83       202.55          834
   84      203.031          826
   85      203.511          828
   86      203.991          831
   87      204.471          826
   88      204.951          827
   89      205.431          831
   90       205.91          832
   91       206.39          830
   92       206.87          829
   93      207.349          824
   94      207.829          833
   95      208.309          844
   96      208.788          845
   97      209.267          843
   98      209.747          834
   99      210.226          827
  100      210.705          832
  101      211.185          836
  102      211.664          832
  103      212.143          829
  104      212.622          821
  105      213.101          820
  106      213.579          821
  107      214.058          823
  108      214.537          828
  109      215.016          834
  110      215.494          825
  111      215.973          832
  112      216.452          834
  113       216.93          830
  114      217.408          832
  115      217.887          837
  116      218.365          841
  117      218.843          836
  118      219.321          831
  119      219.799          832
  120      220.278          845
  121      220.755          862
  122      221.233          867
  123      221.711          859
  124      222.189          853
  125      222.667          841
  126      223.144          836
  127      223.622          826
  128        224.1          824
  129      224.577          835
  130      225.055          841
  131      225.532          844
  132      226.009          845
  133      226.486          853
  134      226.964          851
  135      227.441          837
  136      227.918          840
  137      228.395          843
  138      228.872          830
  139      229.349          824
  140      229.826          835
  141      230.302          844
  142      230.779          848
  143      231.256          848
  144      231.732          849
  145      232.209          845
  146      232.685          839
  147      233.162          841
  148      233.638          839
  149      234.114          837
  150       234.59          834
  151      235.066          840
  152      235.543          846
  153      236.019          847
  154      236.495          837
  155       236.97          828
  156      237.446          829
  157      237.922          833
  158      238.398          838
  159      238.873          843
  160      239.349          840
  161      239.824          839
  162        240.3          844
  163      240.775          838
  164      241.251          837
  165      241.726          844
  166      242.201          849
  167      242.676          848
  168      243.151          843
  169      243.626          845
  170      244.101          850
  171      244.576          853
  172      245.051          854
  173      245.526          845
  174          246          835
  175      246.475          842
  176       246.95          846
  177      247.424          837
  178      247.899          835
  179      248.373          834
  180      248.847          839
  181      249.321          842
  182      249.796          845
  183       250.27          837
  184      250.744          829
  185      251.218          836
  186      251.692          842
  187      252.166          845
  188      252.639          844
  189      253.113          845
  190      253.587          848
  191       254.06          839
  192      254.534          832
  193      255.007          833
  194      255.481          837
  195      255.954          840
  196      256.427          842
  197      256.901          844
  198      257.374          837
  199      257.847          836
  200       258.32          837
  201      258.793          840
  202      259.266          844
  203      259.739          850
  204      260.211          851
  205      260.684          852
  206      261.157          852
  207      261.629          851
  208      262.102          849
  209      262.574          843
  210      263.046          849
  211      263.519          850
  212      263.991          845
  213      264.463          840
  214      264.935          841
  215      265.407          839
  216      265.879          844
  217      266.351          842
  218      266.823          833
  219      267.295          832
  220      267.766          837
  221      268.238          845
  222       268.71          851
  223      269.181          841
  224      269.653          835
  225      270.124          838
  226      270.595          836
  227      271.066          839
  228      271.538          836
  229      272.009          840
  230       272.48          844
  231      272.951          837
  232      273.422          840
  233      273.892          846
  234      274.363          842
  235      274.834          834
  236      275.305          836
  237      275.775          837
  238      276.246          837
  239      276.716          835
  240      277.186          831
  241      277.657          833
  242      278.127          837
  243      278.597          840
  244      279.067          834
  245      279.537          825
  246      280.007          827
  247      280.477          832
  248      280.947          836
  249      281.417          838
  250      281.886          835
  251      282.356          832
  252      282.825          836
  253      283.295          835
  254      283.764          834
  255      284.234          838
  256      284.703          852
  257      285.172          848
  258      285.641          838
  259       286.11          829
  260      286.579          824
  261      287.048          825
  262      287.517          831
  263      287.986          839
  264      288.454          845
  265      288.923          834
  266      289.392          829
  267       289.86          832
  268      290.329          837
  269      290.797          831
  270      291.265          833
  271      291.734          828
  272      292.202          824
  273       292.67          821
  274      293.138          826
  275      293.606          835
  276      294.074          833
  277      294.541          832
  278      295.009          833
  279      295.477          834
  280      295.944          839
  281      296.412          843
  282      296.879          834
  283      297.347          829
  284      297.814          837
  285      298.281          841
  286      298.749          851
  287      299.216          851
  288      299.683          845
  289       300.15          841
  290      300.616          835
  291      301.083          834
  292       301.55          835
  293      302.017          840
  294      302.483          835
  295       302.95          831
  296      303.416          836
  297      303.883          833
  298      304.349          836
  299      304.815          847
  300      305.281          841
  301      305.748          845
  302      306.214          858
  303       306.68          861
  304      307.146          865
  305      307.611          871
  306      308.077          877
  307      308.543          885
  308      309.008          873
  309      309.474          864
  310      309.939          866
  311      310.405          866
  312       310.87          865
  313      311.335          872
  314        311.8          881
  315      312.266          877
  316      312.731          874
  317      313.196          869
  318       313.66          871
  319      314.125          871
  320       314.59          867
  321      315.055          863
  322      315.519          861
  323      315.984          863
  324      316.448          861
  325      316.913          858
  326      317.377          854
  327      317.841          853
  328      318.305          858
  329      318.769          861
  330      319.233          865
  331      319.697          867
  332      320.161          862
  333      320.625          870
  334      321.089          883
  335      321.552          876
  336      322.016          865
  337      322.479          875
  338      322.943          890
  339      323.406          884
  340      323.869          874
  341      324.333          864
  342      324.796          861
  343      325.259          860
  344      325.722          856
  345      326.185          855
  346      326.647          852
  347       327.11          856
  348      327.573          863
  349      328.035          879
  350      328.498          883
  351       328.96          870
  352      329.423          860
  353      329.885          855
  354      330.347          860
  355       330.81          863
  356      331.272          866
  357      331.734          863
  358      332.196          854
  359      332.657          845
  360      333.119          844
  361      333.581          849
  362      334.043          870
  363      334.504          879
  364      334.966          881
  365      335.427          883
  366      335.888          879
  367       336.35          874
  368      336.811          869
  369      337.272          867
  370      337.733          866
  371      338.194          867
  372      338.655          862
  373      339.115          858
  374      339.576          868
  375      340.037          884
  376      340.497          905
  377      340.958          916
  378      341.418          906
  379      341.879          891
  380      342.339          880
  381      342.799          879
  382      343.259          909
  383      343.719          942
  384      344.179          955
  385      344.639          954
  386      345.099          950
  387      345.559          959
  388      346.018          968
  389      346.478          974
  390      346.937          965
  391      347.397          948
  392      347.856          933
  393      348.315          917
  394      348.774          918
  395      349.234          921
  396      349.693          912
  397      350.152          913
  398       350.61          948
  399      351.069          988
  400      351.528          996
  401      351.987          971
  402      352.445          943
  403      352.904          916
  404      353.362          900
  405       353.82          889
  406      354.279          886
  407      354.737          893
  408      355.195          897
  409      355.653          889
  410      356.111          885
  411      356.569          885
  412      357.027          886
  413      357.484          892
  414      357.942          903
  415      358.399          912
  416      358.857          922
  417      359.314          924
  418      359.772          911
  419      360.229          901
  420      360.686          898
  421      361.143          888
  422        361.6          877
  423      362.057          878
  424      362.514          887
  425      362.971          887
  426      363.427          883
  427      363.884          880
  428       364.34          873
  429      364.797          867
  430      365.253          867
  431      365.709          872
  432      366.166          877
  433      366.622          875
  434      367.078          882
  435      367.534          885
  436       367.99          885
  437      368.445          894
  438      368.901          904
  439      369.357          919
  440      369.812          921
  441      370.268          907
  442      370.723          891
  443      371.179          883
  444      371.634          880
  445      372.089          872
  446      372.544          875
  447      372.999          882
  448      373.454          888
  449      373.909          880
  450      374.364          874
  451      374.818          869
  452      375.273          862
  453      375.727          862
  454      376.182          865
  455      376.636          864
  456       377.09          874
  457      377.545          876
  458      377.999          875
  459      378.453          881
  460      378.907          885
  461      379.361          897
  462      379.814          902
  463      380.268          910
  464      380.722          927
  465      381.175          923
  466      381.629          921
  467      382.082          925
  468      382.535          922
  469      382.989          913
  470      383.442          910
  471      383.895          925
  472      384.348          931
  473      384.801          918
  474      385.253          917
  475      385.706          928
  476      386.159          939
  477      386.611          949
  478      387.064          958
  479      387.516          968
  480      387.968          961
  481      388.421          948
  482      388.873          945
  483      389.325          950
  484      389.777          954
  485      390.229          945
  486      390.681          932
  487      391.132          919
  488      391.584          914
  489      392.035          917
  490      392.487          923
  491      392.938          923
  492       393.39          922
  493      393.841          929
  494      394.292          927
  495      394.743          924
  496      395.194          912
  497      395.645          905
  498      396.096          909
  499      396.546          902
  500      396.997          896
  501      397.448          894
  502      397.898          885
  503      398.349          872
  504      398.799          873
  505      399.249          876
  506      399.699          886
  507      400.149          893
  508      400.599          887
  509      401.049          888
  510      401.499          888
  511      401.949          899
  512      402.398          907
  513      402.848          911
  514      403.297          913
  515      403.747          907
  516      404.196          905
  517      404.645          917
  518      405.094          919
  519      405.543          921
  520      405.992          921
  521      406.441          922
  522       406.89          915
  523      407.339          912
  524      407.787          916
  525      408.236          911
  526      408.684          909
  527      409.132          925
  528      409.581          944
  529      410.029          953
  530      410.477          954
  531      410.925          951
  532      411.373          942
  533      411.821          932
  534      412.269          923
  535      412.716          909
  536      413.164          916
  537      413.611          923
  538      414.059          907
  539      414.506          903
  540      414.953          901
  541        415.4          897
  542      415.847          892
  543      416.294          888
  544      416.741          901
  545      417.188          913
  546      417.635          917
  547      418.081          913
  548      418.528          923
  549      418.974          938
  550      419.421          934
  551      419.867          937
  552      420.313          945
  553      420.759          934
  554      421.205          933
  555      421.651          936
  556      422.097          936
  557      422.543          923
  558      422.989          913
  559      423.434          916
  560       423.88          924
  561      424.325          919
  562       424.77          911
  563      425.216          914
  564      425.661          916
  565      426.106          921
  566      426.551          927
  567      426.996          932
  568       427.44          942
  569      427.885          957
  570       428.33          960
  571      428.774          955
  572      429.219          961
  573      429.663          988
  574      430.107         1007
  575      430.551         1016
  576      430.996         1028
  577       431.44         1018
  578      431.883          992
  579      432.327          985
  580      432.771         1021
  581      433.215         1090
  582      433.658         1139
  583      434.102         1145
  584      434.545         1121
  585      434.988         1086
  586      435.431         1046
  587      435.875         1018
  588      436.318          995
  589      436.761          982
  590      437.203          984
  591      437.646          991
