scansci Spectrometer Data File
--- Measurement Setting ---
Type: Sample Spectrum
Date: Wed May 26 15:57:46 2021
User: (Reserved by scansci)
Serial: (Reserved by scansci)
Channel: No. 11
Integration Time: 32
Average: 1
Boxcar: 0
Electrical Dark: No-corrected
Time Normalize: (Reserved by scansci)
Dual-beam: (Reserved by scansci)
Reference Ch: (Reserved by scansci)
--- Measurement Data ---
Pixel   Wavelength   Intensity
    0        344.4          880
    1      344.867          877
    2      345.334          882
    3      345.801          885
    4      346.268          886
    5      346.735          886
    6      347.202          881
    7      347.669          884
    8      348.135          883
    9      348.602          879
   10      349.068          879
   11      349.535          878
   12      350.001          880
   13      350.467          876
   14      350.933          874
   15      351.399          882
   16      351.866          880
   17      352.331          869
   18      352.797          873
   19      353.263          879
   20      353.729          882
   21      354.194          880
   22       354.66          881
   23      355.126          880
   24      355.591          877
   25      356.056          879
   26      356.522          883
   27      356.987          884
   28      357.452          880
   29      357.917          883
   30      358.382          882
   31      358.847          875
   32      359.312          882
   33      359.776          889
   34      360.241          879
   35      360.706          874
   36       361.17          878
   37      361.634          873
   38      362.099          867
   39      362.563          866
   40      363.027          870
   41      363.491          874
   42      363.955          873
   43      364.419          873
   44      364.883          873
   45      365.347          873
   46      365.811          873
   47      366.274          872
   48      366.738          874
   49      367.201          877
   50      367.665          877
   51      368.128          878
   52      368.592          880
   53      369.055          881
   54      369.518          881
   55      369.981          883
   56      370.444          878
   57      370.907          875
   58       371.37          881
   59      371.832          878
   60      372.295          876
   61      372.757          878
   62       373.22          882
   63      373.682          883
   64      374.145          878
   65      374.607          880
   66      375.069          882
   67      375.531          876
   68      375.993          876
   69      376.455          873
   70      376.917          879
   71      377.379          885
   72      377.841          879
   73      378.302          874
   74      378.764          877
   75      379.225          886
   76      379.687          884
   77      380.148          877
   78      380.609          876
   79      381.071          878
   80      381.532          879
   81      381.993          874
   82      382.454          867
   83      382.915          865
   84      383.375          861
   85      383.836          863
   86      384.297          870
   87      384.757          871
   88      385.218          870
   89      385.678          872
   90      386.138          871
   91      386.599          872
   92      387.059          871
   93      387.519          870
   94      387.979          873
   95      388.439          880
   96      388.899          884
   97      389.358          879
   98      389.818          876
   99      390.278          872
  100      390.737          874
  101      391.197          874
  102      391.656          873
  103      392.115          881
  104      392.575          885
  105      393.034          885
  106      393.493          887
  107      393.952          883
  108      394.411          880
  109       394.87          879
  110      395.328          874
  111      395.787          872
  112      396.246          879
  113      396.704          881
  114      397.163          872
  115      397.621          866
  116      398.079          862
  117      398.537          863
  118      398.995          871
  119      399.454          882
  120      399.911          895
  121      400.369          899
  122      400.827          890
  123      401.285          883
  124      401.743          879
  125        402.2          878
  126      402.658          874
  127      403.115          874
  128      403.572          879
  129       404.03          879
  130      404.487          877
  131      404.944          874
  132      405.401          869
  133      405.858          872
  134      406.315          880
  135      406.771          884
  136      407.228          878
  137      407.685          877
  138      408.141          880
  139      408.598          884
  140      409.054          887
  141       409.51          887
  142      409.967          886
  143      410.423          881
  144      410.879          876
  145      411.335          878
  146      411.791          881
  147      412.246          890
  148      412.702          894
  149      413.158          895
  150      413.613          896
  151      414.069          890
  152      414.524          880
  153       414.98          873
  154      415.435          878
  155       415.89          887
  156      416.345          886
  157        416.8          881
  158      417.255          879
  159       417.71          874
  160      418.165          868
  161      418.619          868
  162      419.074          872
  163      419.529          879
  164      419.983          882
  165      420.437          880
  166      420.892          875
  167      421.346          875
  168        421.8          873
  169      422.254          870
  170      422.708          872
  171      423.162          876
  172      423.616          879
  173       424.07          884
  174      424.523          880
  175      424.977          876
  176       425.43          878
  177      425.884          872
  178      426.337          865
  179       426.79          867
  180      427.243          874
  181      427.697          877
  182       428.15          871
  183      428.602          868
  184      429.055          871
  185      429.508          875
  186      429.961          880
  187      430.413          882
  188      430.866          881
  189      431.318          883
  190      431.771          884
  191      432.223          882
  192      432.675          880
  193      433.127          878
  194      433.579          879
  195      434.031          882
  196      434.483          879
  197      434.935          875
  198      435.387          878
  199      435.838          885
  200       436.29          881
  201      436.741          876
  202      437.193          876
  203      437.644          877
  204      438.095          877
  205      438.546          876
  206      438.997          877
  207      439.448          876
  208      439.899          883
  209       440.35          887
  210      440.801          885
  211      441.251          876
  212      441.702          871
  213      442.152          872
  214      442.603          878
  215      443.053          884
  216      443.503          882
  217      443.954          885
  218      444.404          887
  219      444.854          885
  220      445.304          890
  221      445.753          893
  222      446.203          887
  223      446.653          882
  224      447.102          885
  225      447.552          884
  226      448.001          878
  227      448.451          875
  228        448.9          873
  229      449.349          870
  230      449.798          865
  231      450.247          865
  232      450.696          877
  233      451.145          886
  234      451.594          886
  235      452.042          884
  236      452.491          885
  237      452.939          885
  238      453.388          878
  239      453.836          869
  240      454.285          873
  241      454.733          879
  242      455.181          877
  243      455.629          884
  244      456.077          889
  245      456.525          886
  246      456.972          877
  247       457.42          872
  248      457.868          877
  249      458.315          886
  250      458.763          886
  251       459.21          887
  252      459.657          892
  253      460.104          889
  254      460.552          876
  255      460.999          870
  256      461.446          873
  257      461.892          870
  258      462.339          874
  259      462.786          878
  260      463.233          875
  261      463.679          870
  262      464.125          874
  263      464.572          873
  264      465.018          873
  265      465.464          876
  266       465.91          877
  267      466.356          879
  268      466.802          881
  269      467.248          882
  270      467.694          885
  271       468.14          885
  272      468.585          881
  273      469.031          877
  274      469.476          875
  275      469.922          869
  276      470.367          872
  277      470.812          877
  278      471.257          875
  279      471.702          876
  280      472.147          882
  281      472.592          881
  282      473.037          874
  283      473.482          878
  284      473.926          874
  285      474.371          867
  286      474.815          872
  287      475.259          877
  288      475.704          884
  289      476.148          886
  290      476.592          883
  291      477.036          879
  292       477.48          873
  293      477.924          874
  294      478.368          878
  295      478.811          882
  296      479.255          889
  297      479.698          885
  298      480.142          882
  299      480.585          876
  300      481.028          881
  301      481.472          883
  302      481.915          877
  303      482.358          870
  304      482.801          871
  305      483.244          873
  306      483.686          871
  307      484.129          870
  308      484.572          867
  309      485.014          873
  310      485.456          880
  311      485.899          878
  312      486.341          874
  313      486.783          878
  314      487.225          885
  315      487.667          886
  316      488.109          880
  317      488.551          881
  318      488.993          883
  319      489.434          885
  320      489.876          885
  321      490.318          891
  322      490.759          890
  323        491.2          884
  324      491.641          881
  325      492.083          874
  326      492.524          873
  327      492.965          875
  328      493.406          882
  329      493.846          889
  330      494.287          889
  331      494.728          884
  332      495.168          883
  333      495.609          882
  334      496.049          881
  335      496.489          881
  336       496.93          882
  337       497.37          879
  338       497.81          880
  339       498.25          882
  340       498.69          884
  341      499.129          883
  342      499.569          879
  343      500.009          882
  344      500.448          893
  345      500.888          891
  346      501.327          884
  347      501.766          876
  348      502.206          869
  349      502.645          867
  350      503.084          865
  351      503.523          866
  352      503.961          873
  353        504.4          874
  354      504.839          876
  355      505.277          881
  356      505.716          887
  357      506.154          894
  358      506.593          887
  359      507.031          880
  360      507.469          880
  361      507.907          878
  362      508.345          875
  363      508.783          876
  364      509.221          875
  365      509.659          873
  366      510.096          874
  367      510.534          871
  368      510.971          872
  369      511.409          876
  370      511.846          876
  371      512.283          870
  372       512.72          868
  373      513.157          872
  374      513.594          873
  375      514.031          874
  376      514.468          877
  377      514.905          879
  378      515.341          885
  379      515.778          884
  380      516.214          878
  381       516.65          876
  382      517.087          878
  383      517.523          875
  384      517.959          873
  385      518.395          876
  386      518.831          880
  387      519.267          879
  388      519.702          883
  389      520.138          883
  390      520.574          880
  391      521.009          878
  392      521.444          879
  393       521.88          874
  394      522.315          872
  395       522.75          872
  396      523.185          873
  397       523.62          873
  398      524.055          877
  399       524.49          881
  400      524.924          883
  401      525.359          879
  402      525.794          874
  403      526.228          872
  404      526.662          873
  405      527.097          877
  406      527.531          879
  407      527.965          873
  408      528.399          872
  409      528.833          881
  410      529.267          884
  411        529.7          882
  412      530.134          877
  413      530.568          874
  414      531.001          876
  415      531.434          876
  416      531.868          877
  417      532.301          877
  418      532.734          873
  419      533.167          879
  420        533.6          885
  421      534.033          883
  422      534.466          881
  423      534.898          879
  424      535.331          880
  425      535.763          885
  426      536.196          886
  427      536.628          886
  428       537.06          888
  429      537.493          892
  430      537.925          891
  431      538.357          879
  432      538.788          881
  433       539.22          884
  434      539.652          878
  435      540.084          880
  436      540.515          883
  437      540.947          880
  438      541.378          882
  439      541.809          888
  440       542.24          892
  441      542.672          891
  442      543.103          889
  443      543.533          885
  444      543.964          881
  445      544.395          882
  446      544.826          885
  447      545.256          884
  448      545.687          884
  449      546.117          888
  450      546.547          889
  451      546.978          889
  452      547.408          890
  453      547.838          888
  454      548.268          885
  455      548.698          888
  456      549.127          893
  457      549.557          890
  458      549.987          890
  459      550.416          889
  460      550.846          890
  461      551.275          886
  462      551.704          886
  463      552.133          883
  464      552.562          878
  465      552.991          879
  466       553.42          877
  467      553.849          884
  468      554.278          888
  469      554.706          885
  470      555.135          885
  471      555.563          882
  472      555.991          886
  473       556.42          890
  474      556.848          890
  475      557.276          890
  476      557.704          886
  477      558.132          881
  478       558.56          884
  479      558.987          891
  480      559.415          888
  481      559.843          878
  482       560.27          878
  483      560.697          885
  484      561.125          887
  485      561.552          883
  486      561.979          880
  487      562.406          878
  488      562.833          881
  489       563.26          879
  490      563.686          880
  491      564.113          883
  492       564.54          892
  493      564.966          898
  494      565.392          893
  495      565.819          892
  496      566.245          887
  497      566.671          887
  498      567.097          892
  499      567.523          891
  500      567.949          894
  501      568.374          897
  502        568.8          893
  503      569.226          884
  504      569.651          878
  505      570.077          880
  506      570.502          880
  507      570.927          881
  508      571.352          886
  509      571.777          888
  510      572.202          888
  511      572.627          884
  512      573.052          882
  513      573.476          880
  514      573.901          878
  515      574.325          877
  516       574.75          882
  517      575.174          886
  518      575.598          887
  519      576.022          888
  520      576.446          885
  521       576.87          881
  522      577.294          881
  523      577.718          884
  524      578.142          890
  525      578.565          889
  526      578.989          883
  527      579.412          875
  528      579.835          874
  529      580.259          881
  530      580.682          878
  531      581.105          879
  532      581.528          882
  533      581.951          883
  534      582.373          890
  535      582.796          889
  536      583.219          879
  537      583.641          881
  538      584.063          888
  539      584.486          888
  540      584.908          887
  541       585.33          890
  542      585.752          887
  543      586.174          888
  544      586.596          888
  545      587.018          881
  546      587.439          880
  547      587.861          879
  548      588.282          880
  549      588.704          882
  550      589.125          889
  551      589.546          892
  552      589.967          884
  553      590.388          877
  554      590.809          878
  555       591.23          885
  556      591.651          888
  557      592.071          886
  558      592.492          885
  559      592.912          887
  560      593.333          892
  561      593.753          891
  562      594.173          886
  563      594.593          887
  564      595.013          885
  565      595.433          884
  566      595.853          884
  567      596.273          884
  568      596.693          882
  569      597.112          886
  570      597.532          889
  571      597.951          884
  572       598.37          883
  573      598.789          877
  574      599.208          877
  575      599.627          880
  576      600.046          886
  577      600.465          896
  578      600.884          899
  579      601.303          890
  580      601.721          888
  581      602.139          886
  582      602.558          891
  583      602.976          897
  584      603.394          901
  585      603.812          909
  586       604.23          912
  587      604.648          910
  588      605.066          905
  589      605.484          901
  590      605.901          898
  591      606.319          900
