scansci Spectrometer Data File
--- Measurement Setting ---
Type: Sample Spectrum
Date: Wed May 26 15:53:21 2021
User: (Reserved by scansci)
Serial: (Reserved by scansci)
Channel: No. 11
Integration Time: 62
Average: 1
Boxcar: 0
Electrical Dark: No-corrected
Time Normalize: (Reserved by scansci)
Dual-beam: (Reserved by scansci)
Reference Ch: (Reserved by scansci)
--- Measurement Data ---
Pixel   Wavelength   Intensity
    0        344.4          928
    1      344.867          925
    2      345.334          933
    3      345.801          933
    4      346.268          926
    5      346.735          925
    6      347.202          929
    7      347.669          932
    8      348.135          931
    9      348.602          931
   10      349.068          929
   11      349.535          928
   12      350.001          923
   13      350.467          918
   14      350.933          921
   15      351.399          930
   16      351.866          934
   17      352.331          934
   18      352.797          929
   19      353.263          929
   20      353.729          930
   21      354.194          925
   22       354.66          924
   23      355.126          926
   24      355.591          933
   25      356.056          940
   26      356.522          936
   27      356.987          933
   28      357.452          936
   29      357.917          938
   30      358.382          934
   31      358.847          937
   32      359.312          947
   33      359.776          945
   34      360.241          937
   35      360.706          933
   36       361.17          934
   37      361.634          936
   38      362.099          939
   39      362.563          931
   40      363.027          920
   41      363.491          922
   42      363.955          932
   43      364.419          937
   44      364.883          936
   45      365.347          938
   46      365.811          940
   47      366.274          931
   48      366.738          922
   49      367.201          924
   50      367.665          929
   51      368.128          925
   52      368.592          926
   53      369.055          931
   54      369.518          933
   55      369.981          933
   56      370.444          934
   57      370.907          936
   58       371.37          933
   59      371.832          929
   60      372.295          929
   61      372.757          930
   62       373.22          934
   63      373.682          931
   64      374.145          929
   65      374.607          927
   66      375.069          927
   67      375.531          931
   68      375.993          935
   69      376.455          940
   70      376.917          944
   71      377.379          937
   72      377.841          932
   73      378.302          931
   74      378.764          929
   75      379.225          923
   76      379.687          921
   77      380.148          926
   78      380.609          930
   79      381.071          934
   80      381.532          934
   81      381.993          930
   82      382.454          929
   83      382.915          923
   84      383.375          922
   85      383.836          928
   86      384.297          931
   87      384.757          933
   88      385.218          934
   89      385.678          935
   90      386.138          940
   91      386.599          936
   92      387.059          934
   93      387.519          933
   94      387.979          930
   95      388.439          933
   96      388.899          934
   97      389.358          938
   98      389.818          937
   99      390.278          937
  100      390.737          935
  101      391.197          935
  102      391.656          937
  103      392.115          939
  104      392.575          934
  105      393.034          925
  106      393.493          927
  107      393.952          932
  108      394.411          938
  109       394.87          937
  110      395.328          936
  111      395.787          936
  112      396.246          932
  113      396.704          936
  114      397.163          941
  115      397.621          942
  116      398.079          942
  117      398.537          938
  118      398.995          927
  119      399.454          927
  120      399.911          932
  121      400.369          928
  122      400.827          923
  123      401.285          921
  124      401.743          922
  125        402.2          928
  126      402.658          930
  127      403.115          923
  128      403.572          929
  129       404.03          934
  130      404.487          937
  131      404.944          944
  132      405.401          945
  133      405.858          943
  134      406.315          936
  135      406.771          928
  136      407.228          922
  137      407.685          924
  138      408.141          935
  139      408.598          940
  140      409.054          938
  141       409.51          935
  142      409.967          939
  143      410.423          945
  144      410.879          945
  145      411.335          945
  146      411.791          942
  147      412.246          937
  148      412.702          939
  149      413.158          938
  150      413.613          934
  151      414.069          935
  152      414.524          938
  153       414.98          938
  154      415.435          932
  155       415.89          925
  156      416.345          928
  157        416.8          930
  158      417.255          929
  159       417.71          930
  160      418.165          928
  161      418.619          923
  162      419.074          923
  163      419.529          929
  164      419.983          925
  165      420.437          924
  166      420.892          924
  167      421.346          930
  168        421.8          939
  169      422.254          933
  170      422.708          933
  171      423.162          934
  172      423.616          933
  173       424.07          933
  174      424.523          936
  175      424.977          941
  176       425.43          949
  177      425.884          952
  178      426.337          953
  179       426.79          949
  180      427.243          937
  181      427.697          934
  182       428.15          938
  183      428.602          940
  184      429.055          944
  185      429.508          948
  186      429.961          945
  187      430.413          946
  188      430.866          941
  189      431.318          937
  190      431.771          941
  191      432.223          938
  192      432.675          929
  193      433.127          922
  194      433.579          929
  195      434.031          939
  196      434.483          935
  197      434.935          933
  198      435.387          938
  199      435.838          934
  200       436.29          936
  201      436.741          942
  202      437.193          944
  203      437.644          944
  204      438.095          943
  205      438.546          940
  206      438.997          937
  207      439.448          932
  208      439.899          934
  209       440.35          933
  210      440.801          936
  211      441.251          939
  212      441.702          938
  213      442.152          932
  214      442.603          925
  215      443.053          929
  216      443.503          934
  217      443.954          935
  218      444.404          937
  219      444.854          930
  220      445.304          924
  221      445.753          923
  222      446.203          925
  223      446.653          933
  224      447.102          945
  225      447.552          950
  226      448.001          949
  227      448.451          941
  228        448.9          937
  229      449.349          935
  230      449.798          932
  231      450.247          933
  232      450.696          938
  233      451.145          934
  234      451.594          937
  235      452.042          938
  236      452.491          937
  237      452.939          940
  238      453.388          944
  239      453.836          942
  240      454.285          940
  241      454.733          941
  242      455.181          941
  243      455.629          938
  244      456.077          937
  245      456.525          937
  246      456.972          936
  247       457.42          934
  248      457.868          934
  249      458.315          934
  250      458.763          935
  251       459.21          930
  252      459.657          924
  253      460.104          923
  254      460.552          928
  255      460.999          938
  256      461.446          945
  257      461.892          942
  258      462.339          939
  259      462.786          939
  260      463.233          936
  261      463.679          934
  262      464.125          934
  263      464.572          933
  264      465.018          933
  265      465.464          926
  266       465.91          923
  267      466.356          930
  268      466.802          934
  269      467.248          933
  270      467.694          929
  271       468.14          925
  272      468.585          930
  273      469.031          931
  274      469.476          924
  275      469.922          936
  276      470.367          949
  277      470.812          949
  278      471.257          936
  279      471.702          926
  280      472.147          935
  281      472.592          940
  282      473.037          929
  283      473.482          921
  284      473.926          916
  285      474.371          923
  286      474.815          930
  287      475.259          923
  288      475.704          923
  289      476.148          927
  290      476.592          928
  291      477.036          931
  292       477.48          939
  293      477.924          941
  294      478.368          937
  295      478.811          933
  296      479.255          933
  297      479.698          932
  298      480.142          934
  299      480.585          936
  300      481.028          934
  301      481.472          933
  302      481.915          937
  303      482.358          940
  304      482.801          940
  305      483.244          938
  306      483.686          939
  307      484.129          940
  308      484.572          936
  309      485.014          932
  310      485.456          930
  311      485.899          930
  312      486.341          935
  313      486.783          932
  314      487.225          932
  315      487.667          940
  316      488.109          936
  317      488.551          932
  318      488.993          936
  319      489.434          944
  320      489.876          944
  321      490.318          943
  322      490.759          942
  323        491.2          942
  324      491.641          945
  325      492.083          949
  326      492.524          952
  327      492.965          949
  328      493.406          950
  329      493.846          949
  330      494.287          946
  331      494.728          948
  332      495.168          946
  333      495.609          939
  334      496.049          931
  335      496.489          929
  336       496.93          932
  337       497.37          936
  338       497.81          934
  339       498.25          936
  340       498.69          940
  341      499.129          946
  342      499.569          951
  343      500.009          961
  344      500.448         1017
  345      500.888         1135
  346      501.327         1254
  347      501.766         1326
  348      502.206         1312
  349      502.645         1214
  350      503.084         1109
  351      503.523         1043
  352      503.961         1019
  353        504.4         1002
  354      504.839          980
  355      505.277          968
  356      505.716          965
  357      506.154          964
  358      506.593          955
  359      507.031          943
  360      507.469          937
  361      507.907          942
  362      508.345          949
  363      508.783          954
  364      509.221          956
  365      509.659          950
  366      510.096          941
  367      510.534          937
  368      510.971          936
  369      511.409          937
  370      511.846          936
  371      512.283          939
  372       512.72          943
  373      513.157          940
  374      513.594          940
  375      514.031          937
  376      514.468          931
  377      514.905          928
  378      515.341          929
  379      515.778          926
  380      516.214          927
  381       516.65          930
  382      517.087          937
  383      517.523          941
  384      517.959          944
  385      518.395          941
  386      518.831          944
  387      519.267          950
  388      519.702          952
  389      520.138          953
  390      520.574          954
  391      521.009          948
  392      521.444          946
  393       521.88          946
  394      522.315          943
  395       522.75          944
  396      523.185          939
  397       523.62          938
  398      524.055          938
  399       524.49          935
  400      524.924          931
  401      525.359          931
  402      525.794          932
  403      526.228          935
  404      526.662          944
  405      527.097          948
  406      527.531          947
  407      527.965          949
  408      528.399          953
  409      528.833          951
  410      529.267          943
  411        529.7          936
  412      530.134          936
  413      530.568          943
  414      531.001          948
  415      531.434          947
  416      531.868          947
  417      532.301          945
  418      532.734          945
  419      533.167          953
  420        533.6          954
  421      534.033          945
  422      534.466          942
  423      534.898          942
  424      535.331          944
  425      535.763          945
  426      536.196          945
  427      536.628          949
  428       537.06          941
  429      537.493          944
  430      537.925          952
  431      538.357          950
  432      538.788          946
  433       539.22          949
  434      539.652          952
  435      540.084          945
  436      540.515          940
  437      540.947          945
  438      541.378          947
  439      541.809          951
  440       542.24          949
  441      542.672          947
  442      543.103          947
  443      543.533          950
  444      543.964          955
  445      544.395          953
  446      544.826          948
  447      545.256          945
  448      545.687          948
  449      546.117          947
  450      546.547          952
  451      546.978          955
  452      547.408          952
  453      547.838          952
  454      548.268          957
  455      548.698          960
  456      549.127          959
  457      549.557          964
  458      549.987          954
  459      550.416          948
  460      550.846          948
  461      551.275          939
  462      551.704          940
  463      552.133          936
  464      552.562          933
  465      552.991          938
  466       553.42          948
  467      553.849          955
  468      554.278          952
  469      554.706          950
  470      555.135          947
  471      555.563          952
  472      555.991          958
  473       556.42          955
  474      556.848          951
  475      557.276          951
  476      557.704          955
  477      558.132          960
  478       558.56          958
  479      558.987          953
  480      559.415          951
  481      559.843          950
  482       560.27          954
  483      560.697          965
  484      561.125          969
  485      561.552          963
  486      561.979          961
  487      562.406          962
  488      562.833          956
  489       563.26          958
  490      563.686          968
  491      564.113          968
  492       564.54          970
  493      564.966          975
  494      565.392          980
  495      565.819          985
  496      566.245          985
  497      566.671          980
  498      567.097          974
  499      567.523          979
  500      567.949          991
  501      568.374          993
  502        568.8          992
  503      569.226          992
  504      569.651          998
  505      570.077         1004
  506      570.502         1007
  507      570.927         1016
  508      571.352         1031
  509      571.777         1045
  510      572.202         1050
  511      572.627         1063
  512      573.052         1083
  513      573.476         1093
  514      573.901         1088
  515      574.325         1080
  516       574.75         1091
  517      575.174         1105
  518      575.598         1110
  519      576.022         1120
  520      576.446         1130
  521       576.87         1143
  522      577.294         1152
  523      577.718         1166
  524      578.142         1189
  525      578.565         1202
  526      578.989         1212
  527      579.412         1225
  528      579.835         1243
  529      580.259         1258
  530      580.682         1279
  531      581.105         1317
  532      581.528         1367
  533      581.951         1421
  534      582.373         1481
  535      582.796         1532
  536      583.219         1587
  537      583.641         1667
  538      584.063         1748
  539      584.486         1851
  540      584.908         2018
  541       585.33         2279
  542      585.752         2780
  543      586.174         5172
  544      586.596        11388
  545      587.018        16383
  546      587.439        16383
  547      587.861        16383
  548      588.282        16383
  549      588.704        16383
  550      589.125        16383
  551      589.546        11580
  552      589.967         8069
  553      590.388         5846
  554      590.809         4443
  555       591.23         3556
  556      591.651         2980
  557      592.071         2606
  558      592.492         2346
  559      592.912         2152
  560      593.333         2009
  561      593.753         1909
  562      594.173         1825
  563      594.593         1756
  564      595.013         1699
  565      595.433         1645
  566      595.853         1612
  567      596.273         1585
  568      596.693         1548
  569      597.112         1518
  570      597.532         1496
  571      597.951         1466
  572       598.37         1431
  573      598.789         1391
  574      599.208         1369
  575      599.627         1343
  576      600.046         1314
  577      600.465         1298
  578      600.884         1274
  579      601.303         1255
  580      601.721         1245
  581      602.139         1222
  582      602.558         1198
  583      602.976         1177
  584      603.394         1149
  585      603.812         1129
  586       604.23         1122
  587      604.648         1114
  588      605.066         1114
  589      605.484         1116
  590      605.901         1112
  591      606.319         1094
