scansci Spectrometer Data File
--- Measurement Setting ---
Type: Sample Spectrum
Date: Wed May 26 15:56:50 2021
User: (Reserved by scansci)
Serial: (Reserved by scansci)
Channel: No. 11
Integration Time: 222
Average: 1
Boxcar: 9
Electrical Dark: No-corrected
Time Normalize: (Reserved by scansci)
Dual-beam: (Reserved by scansci)
Reference Ch: (Reserved by scansci)
--- Measurement Data ---
Pixel   Wavelength   Intensity
    0        344.4        903.6
    1      344.867      903.818
    2      345.334      903.167
    3      345.801      902.077
    4      346.268      901.286
    5      346.735        901.4
    6      347.202      901.875
    7      347.669      902.176
    8      348.135      902.111
    9      348.602      901.947
   10      349.068      901.895
   11      349.535      901.632
   12      350.001      901.053
   13      350.467      900.632
   14      350.933      900.579
   15      351.399      900.737
   16      351.866      900.474
   17      352.331      900.105
   18      352.797      900.368
   19      353.263      900.842
   20      353.729      901.105
   21      354.194      901.526
   22       354.66      902.158
   23      355.126      902.632
   24      355.591      902.737
   25      356.056      902.368
   26      356.522      901.789
   27      356.987      901.895
   28      357.452      902.632
   29      357.917      903.053
   30      358.382          903
   31      358.847      903.421
   32      359.312      903.789
   33      359.776      904.053
   34      360.241      904.947
   35      360.706      906.421
   36       361.17      907.526
   37      361.634      907.684
   38      362.099          907
   39      362.563      906.211
   40      363.027      905.842
   41      363.491      905.684
   42      363.955      905.895
   43      364.419      906.158
   44      364.883      906.474
   45      365.347      906.947
   46      365.811      907.105
   47      366.274      906.842
   48      366.738      906.737
   49      367.201          907
   50      367.665      907.211
   51      368.128      907.211
   52      368.592      907.211
   53      369.055      907.053
   54      369.518      906.789
   55      369.981      906.947
   56      370.444      907.632
   57      370.907      908.895
   58       371.37      910.211
   59      371.832      910.947
   60      372.295      911.053
   61      372.757          911
   62       373.22      911.053
   63      373.682      911.474
   64      374.145      912.211
   65      374.607      912.579
   66      375.069      912.789
   67      375.531      913.053
   68      375.993      913.158
   69      376.455      912.789
   70      376.917      912.947
   71      377.379      913.263
   72      377.841      913.105
   73      378.302      912.579
   74      378.764      911.316
   75      379.225      909.421
   76      379.687      907.632
   77      380.148      906.263
   78      380.609      905.579
   79      381.071      905.474
   80      381.532      905.211
   81      381.993      904.789
   82      382.454      904.053
   83      382.915      903.053
   84      383.375      902.105
   85      383.836      901.211
   86      384.297      900.211
   87      384.757      899.316
   88      385.218      898.842
   89      385.678      898.421
   90      386.138      897.842
   91      386.599      897.263
   92      387.059      896.737
   93      387.519      896.632
   94      387.979      897.526
   95      388.439          899
   96      388.899      899.947
   97      389.358      900.211
   98      389.818      900.316
   99      390.278      900.947
  100      390.737      901.947
  101      391.197      902.842
  102      391.656      903.474
  103      392.115      904.895
  104      392.575      906.421
  105      393.034      907.263
  106      393.493      907.684
  107      393.952      907.947
  108      394.411      908.053
  109       394.87      908.263
  110      395.328      908.474
  111      395.787      908.474
  112      396.246      908.211
  113      396.704      907.368
  114      397.163      906.421
  115      397.621      906.263
  116      398.079      906.632
  117      398.537          907
  118      398.995      906.526
  119      399.454      905.368
  120      399.911      904.211
  121      400.369      903.105
  122      400.827      901.368
  123      401.285      899.947
  124      401.743      899.684
  125        402.2      899.684
  126      402.658      899.526
  127      403.115      899.316
  128      403.572      899.316
  129       404.03      899.789
  130      404.487      900.737
  131      404.944          902
  132      405.401      903.316
  133      405.858      903.947
  134      406.315      903.737
  135      406.771      903.316
  136      407.228          903
  137      407.685      902.895
  138      408.141      902.737
  139      408.598      902.789
  140      409.054      903.263
  141       409.51      904.316
  142      409.967          905
  143      410.423          905
  144      410.879      905.526
  145      411.335      906.474
  146      411.791      906.895
  147      412.246      906.579
  148      412.702      905.737
  149      413.158      904.842
  150      413.613          904
  151      414.069      903.263
  152      414.524      902.789
  153       414.98      902.842
  154      415.435      903.368
  155       415.89      903.684
  156      416.345      903.737
  157        416.8          904
  158      417.255      904.211
  159       417.71      904.053
  160      418.165      903.579
  161      418.619      903.316
  162      419.074      903.211
  163      419.529      902.842
  164      419.983          902
  165      420.437      901.053
  166      420.892      902.368
  167      421.346      905.158
  168        421.8          907
  169      422.254      908.474
  170      422.708      909.474
  171      423.162      909.684
  172      423.616      909.316
  173       424.07      909.368
  174      424.523      910.053
  175      424.977      910.947
  176       425.43      911.474
  177      425.884      911.263
  178      426.337      911.158
  179       426.79      911.158
  180      427.243      911.526
  181      427.697      912.158
  182       428.15      912.474
  183      428.602      913.105
  184      429.055      914.105
  185      429.508          914
  186      429.961      913.158
  187      430.413      912.526
  188      430.866      911.789
  189      431.318      911.316
  190      431.771      911.684
  191      432.223      912.421
  192      432.675      912.105
  193      433.127      911.263
  194      433.579      910.632
  195      434.031      910.474
  196      434.483      911.158
  197      434.935      911.789
  198      435.387      911.895
  199      435.838      911.842
  200       436.29      911.895
  201      436.741      912.263
  202      437.193      912.368
  203      437.644      912.263
  204      438.095      911.421
  205      438.546      909.789
  206      438.997      908.895
  207      439.448      908.789
  208      439.899      909.105
  209       440.35      909.474
  210      440.801      909.632
  211      441.251      909.895
  212      441.702      910.316
  213      442.152      910.737
  214      442.603      910.368
  215      443.053      910.421
  216      443.503      910.947
  217      443.954      911.368
  218      444.404          911
  219      444.854      910.368
  220      445.304      909.842
  221      445.753      909.632
  222      446.203      909.632
  223      446.653      909.474
  224      447.102      909.526
  225      447.552      909.421
  226      448.001          909
  227      448.451      908.421
  228        448.9      907.526
  229      449.349      906.895
  230      449.798      906.947
  231      450.247          907
  232      450.696      907.263
  233      451.145      907.842
  234      451.594      907.421
  235      452.042      906.737
  236      452.491      906.211
  237      452.939      905.789
  238      453.388      905.421
  239      453.836          905
  240      454.285      904.474
  241      454.733      904.105
  242      455.181      904.474
  243      455.629      905.158
  244      456.077      905.526
  245      456.525      906.158
  246      456.972      906.684
  247       457.42      906.684
  248      457.868      906.947
  249      458.315      907.053
  250      458.763          907
  251       459.21      906.526
  252      459.657      906.105
  253      460.104      906.105
  254      460.552      905.737
  255      460.999      905.789
  256      461.446      906.316
  257      461.892      906.579
  258      462.339      906.895
  259      462.786      907.789
  260      463.233      908.737
  261      463.679      909.316
  262      464.125      909.789
  263      464.572      910.316
  264      465.018      910.474
  265      465.464      910.474
  266       465.91      910.684
  267      466.356      910.316
  268      466.802      910.158
  269      467.248      910.474
  270      467.694      910.632
  271       468.14      910.789
  272      468.585      910.895
  273      469.031      911.526
  274      469.476      912.053
  275      469.922          912
  276      470.367      912.158
  277      470.812      912.158
  278      471.257      911.421
  279      471.702      910.579
  280      472.147      909.474
  281      472.592      908.368
  282      473.037      907.632
  283      473.482      906.789
  284      473.926          906
  285      474.371      905.684
  286      474.815      905.895
  287      475.259      906.053
  288      475.704      906.105
  289      476.148      906.211
  290      476.592      906.211
  291      477.036          906
  292       477.48      905.842
  293      477.924      905.579
  294      478.368      905.737
  295      478.811      905.684
  296      479.255      905.368
  297      479.698      905.316
  298      480.142      904.842
  299      480.585      904.737
  300      481.028      904.895
  301      481.472      904.579
  302      481.915      904.474
  303      482.358      904.947
  304      482.801      905.316
  305      483.244      905.789
  306      483.686      906.316
  307      484.129      906.421
  308      484.572      906.684
  309      485.014      907.316
  310      485.456      908.211
  311      485.899      908.947
  312      486.341      909.421
  313      486.783      909.368
  314      487.225      909.526
  315      487.667      910.263
  316      488.109      911.211
  317      488.551      912.842
  318      488.993      914.684
  319      489.434      916.158
  320      489.876      917.421
  321      490.318      918.316
  322      490.759      918.368
  323        491.2      918.053
  324      491.641      917.316
  325      492.083      915.789
  326      492.524      914.211
  327      492.965      913.053
  328      493.406      912.474
  329      493.846      912.368
  330      494.287          912
  331      494.728      911.842
  332      495.168      912.474
  333      495.609      913.368
  334      496.049      913.842
  335      496.489      913.368
  336       496.93      912.105
  337       497.37      910.316
  338       497.81      908.737
  339       498.25      907.947
  340       498.69      907.579
  341      499.129      907.789
  342      499.569      908.158
  343      500.009      908.526
  344      500.448      909.579
  345      500.888      910.895
  346      501.327      912.053
  347      501.766      912.895
  348      502.206      912.842
  349      502.645      912.737
  350      503.084      912.526
  351      503.523      911.789
  352      503.961      910.947
  353        504.4      910.632
  354      504.839      910.895
  355      505.277      911.105
  356      505.716      911.474
  357      506.154      912.053
  358      506.593      912.632
  359      507.031      913.211
  360      507.469      913.263
  361      507.907      913.421
  362      508.345      913.632
  363      508.783      913.263
  364      509.221      913.105
  365      509.659      912.737
  366      510.096      912.158
  367      510.534      912.158
  368      510.971      912.526
  369      511.409          913
  370      511.846      913.684
  371      512.283      914.211
  372       512.72      913.947
  373      513.157      913.737
  374      513.594      914.158
  375      514.031      914.789
  376      514.468      915.053
  377      514.905      914.684
  378      515.341      914.211
  379      515.778      914.526
  380      516.214          915
  381       516.65          915
  382      517.087      914.895
  383      517.523      914.842
  384      517.959      915.316
  385      518.395      915.579
  386      518.831      915.526
  387      519.267      915.158
  388      519.702      914.737
  389      520.138      914.526
  390      520.574      914.105
  391      521.009      913.684
  392      521.444      913.158
  393       521.88      912.421
  394      522.315      911.211
  395       522.75      910.158
  396      523.185      909.789
  397       523.62      909.263
  398      524.055      908.368
  399       524.49      907.579
  400      524.924      907.368
  401      525.359      907.316
  402      525.794      906.421
  403      526.228          905
  404      526.662      904.211
  405      527.097      904.053
  406      527.531      903.947
  407      527.965      903.895
  408      528.399      903.526
  409      528.833      903.263
  410      529.267      903.474
  411        529.7      904.211
  412      530.134      905.263
  413      530.568      906.421
  414      531.001      907.316
  415      531.434      907.842
  416      531.868          909
  417      532.301      910.368
  418      532.734      911.368
  419      533.167      912.158
  420        533.6          913
  421      534.033      914.158
  422      534.466      915.368
  423      534.898      916.316
  424      535.331      916.632
  425      535.763      916.895
  426      536.196      917.526
  427      536.628      918.526
  428       537.06      919.579
  429      537.493      920.737
  430      537.925      921.684
  431      538.357      922.263
  432      538.788      922.737
  433       539.22          923
  434      539.652      923.316
  435      540.084      923.158
  436      540.515      922.737
  437      540.947      922.895
  438      541.378      923.895
  439      541.809      925.526
  440       542.24      927.579
  441      542.672      929.684
  442      543.103      931.211
  443      543.533      932.421
  444      543.964      933.474
  445      544.395      934.316
  446      544.826      935.421
  447      545.256      936.579
  448      545.687      937.789
  449      546.117      939.368
  450      546.547      940.526
  451      546.978          941
  452      547.408      941.579
  453      547.838      942.053
  454      548.268      942.263
  455      548.698      942.368
  456      549.127      942.368
  457      549.557      941.474
  458      549.987      939.632
  459      550.416      937.579
  460      550.846      935.368
  461      551.275      933.526
  462      551.704      932.842
  463      552.133      933.158
  464      552.562      933.526
  465      552.991      933.053
  466       553.42      932.421
  467      553.849      931.211
  468      554.278      929.316
  469      554.706          928
  470      555.135      927.474
  471      555.563      927.263
  472      555.991      927.737
  473       556.42      928.684
  474      556.848      929.842
  475      557.276      931.053
  476      557.704      932.263
  477      558.132      933.526
  478       558.56      934.684
  479      558.987      935.632
  480      559.415      936.474
  481      559.843      936.895
  482       560.27      936.526
  483      560.697      936.211
  484      561.125      936.579
  485      561.552      936.842
  486      561.979      936.947
  487      562.406      936.632
  488      562.833      935.737
  489       563.26      934.842
  490      563.686      933.947
  491      564.113      932.895
  492       564.54      932.263
  493      564.966      931.474
  494      565.392      930.053
  495      565.819      928.789
  496      566.245      927.842
  497      566.671      926.789
  498      567.097      925.789
  499      567.523      924.842
  500      567.949      923.632
  501      568.374      922.526
  502        568.8      921.158
  503      569.226      919.474
  504      569.651      918.158
  505      570.077      917.526
  506      570.502      917.421
  507      570.927      917.789
  508      571.352      918.316
  509      571.777      918.737
  510      572.202      919.053
  511      572.627      919.105
  512      573.052      919.421
  513      573.476      919.842
  514      573.901      919.842
  515      574.325      919.789
  516       574.75      920.105
  517      575.174      920.895
  518      575.598      921.737
  519      576.022      922.526
  520      576.446      923.579
  521       576.87      924.895
  522      577.294      926.263
  523      577.718      927.526
  524      578.142      928.263
  525      578.565      928.842
  526      578.989      929.316
  527      579.412      930.053
  528      579.835      931.737
  529      580.259      933.158
  530      580.682      933.579
  531      581.105      933.105
  532      581.528      932.684
  533      581.951      933.158
  534      582.373      934.105
  535      582.796      934.947
  536      583.219      935.789
  537      583.641      936.789
  538      584.063      938.579
  539      584.486      940.474
  540      584.908      942.789
  541       585.33      945.684
  542      585.752      948.158
  543      586.174      950.316
  544      586.596      952.368
  545      587.018      954.947
  546      587.439      957.421
  547      587.861          959
  548      588.282      960.632
  549      588.704      962.474
  550      589.125      964.316
  551      589.546      965.842
  552      589.967      966.789
  553      590.388      967.211
  554      590.809      967.368
  555       591.23      967.158
  556      591.651      966.263
  557      592.071      964.632
  558      592.492      962.895
  559      592.912      960.842
  560      593.333      958.474
  561      593.753      956.474
  562      594.173      954.842
  563      594.593      953.263
  564      595.013      951.316
  565      595.433      949.211
  566      595.853      947.158
  567      596.273      945.105
  568      596.693      943.316
  569      597.112      941.842
  570      597.532      941.105
  571      597.951      940.684
  572       598.37          941
  573      598.789      943.789
  574      599.208      949.053
  575      599.627      956.526
  576      600.046      964.737
  577      600.465      972.105
  578      600.884      978.211
  579      601.303      982.947
  580      601.721          987
  581      602.139      990.737
  582      602.558      994.158
  583      602.976      996.789
  584      603.394      998.368
  585      603.812      999.053
  586       604.23      999.053
  587      604.648      999.316
  588      605.066      1000.79
  589      605.484      1002.84
  590      605.901      1005.05
  591      606.319      1007.42
