scansci Spectrometer Data File
--- Measurement Setting ---
Type: Sample Spectrum
Date: Wed May 26 15:36:07 2021
User: (Reserved by scansci)
Serial: (Reserved by scansci)
Channel: No. 11
Integration Time: 222
Average: 1
Boxcar: 0
Electrical Dark: No-corrected
Time Normalize: (Reserved by scansci)
Dual-beam: (Reserved by scansci)
Reference Ch: (Reserved by scansci)
--- Measurement Data ---
Pixel   Wavelength   Intensity
    0        162.5          805
    1      162.985          815
    2      163.469          819
    3      163.954          824
    4      164.439          830
    5      164.923          832
    6      165.408          825
    7      165.892          817
    8      166.377          810
    9      166.861          818
   10      167.345          829
   11       167.83          819
   12      168.314          817
   13      168.798          823
   14      169.282          828
   15      169.766          831
   16       170.25          827
   17      170.734          826
   18      171.218          824
   19      171.702          821
   20      172.185          822
   21      172.669          825
   22      173.153          819
   23      173.636          822
   24       174.12          818
   25      174.603          849
   26      175.087          866
   27       175.57          852
   28      176.053          848
   29      176.537          849
   30       177.02          837
   31      177.503          824
   32      177.986          818
   33      178.469          815
   34      178.952          828
   35      179.435          836
   36      179.918          844
   37      180.401          855
   38      180.884          845
   39      181.366          837
   40      181.849          838
   41      182.332          842
   42      182.814          841
   43      183.297          837
   44      183.779          835
   45      184.262          830
   46      184.744          821
   47      185.226          820
   48      185.708          825
   49      186.191          826
   50      186.673          824
   51      187.155          821
   52      187.637          821
   53      188.119          827
   54        188.6          829
   55      189.082          827
   56      189.564          823
   57      190.046          820
   58      190.527          830
   59      191.009          830
   60      191.491          826
   61      191.972          825
   62      192.454          829
   63      192.935          835
   64      193.416          844
   65      193.897          849
   66      194.379          846
   67       194.86          844
   68      195.341          843
   69      195.822          837
   70      196.303          830
   71      196.784          835
   72      197.265          841
   73      197.746          830
   74      198.226          824
   75      198.707          834
   76      199.188          851
   77      199.668          855
   78      200.149          847
   79      200.629          842
   80       201.11          851
   81       201.59          841
   82       202.07          826
   83       202.55          822
   84      203.031          826
   85      203.511          820
   86      203.991          820
   87      204.471          821
   88      204.951          818
   89      205.431          821
   90       205.91          824
   91       206.39          819
   92       206.87          813
   93      207.349          813
   94      207.829          814
   95      208.309          811
   96      208.788          812
   97      209.267          817
   98      209.747          818
   99      210.226          817
  100      210.705          823
  101      211.185          837
  102      211.664          841
  103      212.143          839
  104      212.622          838
  105      213.101          834
  106      213.579          828
  107      214.058          832
  108      214.537          829
  109      215.016          829
  110      215.494          829
  111      215.973          830
  112      216.452          833
  113       216.93          830
  114      217.408          832
  115      217.887          829
  116      218.365          827
  117      218.843          828
  118      219.321          833
  119      219.799          837
  120      220.278          837
  121      220.755          845
  122      221.233          848
  123      221.711          840
  124      222.189          834
  125      222.667          835
  126      223.144          833
  127      223.622          827
  128        224.1          836
  129      224.577          844
  130      225.055          839
  131      225.532          843
  132      226.009          841
  133      226.486          827
  134      226.964          821
  135      227.441          815
  136      227.918          811
  137      228.395          808
  138      228.872          807
  139      229.349          814
  140      229.826          828
  141      230.302          828
  142      230.779          827
  143      231.256          827
  144      231.732          829
  145      232.209          822
  146      232.685          821
  147      233.162          817
  148      233.638          812
  149      234.114          813
  150       234.59          809
  151      235.066          823
  152      235.543          825
  153      236.019          819
  154      236.495          819
  155       236.97          813
  156      237.446          806
  157      237.922          811
  158      238.398          818
  159      238.873          819
  160      239.349          825
  161      239.824          834
  162        240.3          833
  163      240.775          823
  164      241.251          823
  165      241.726          829
  166      242.201          842
  167      242.676          847
  168      243.151          831
  169      243.626          826
  170      244.101          839
  171      244.576          836
  172      245.051          833
  173      245.526          828
  174          246          828
  175      246.475          829
  176       246.95          835
  177      247.424          833
  178      247.899          828
  179      248.373          821
  180      248.847          819
  181      249.321          819
  182      249.796          823
  183       250.27          829
  184      250.744          820
  185      251.218          825
  186      251.692          835
  187      252.166          834
  188      252.639          833
  189      253.113          837
  190      253.587          836
  191       254.06          831
  192      254.534          828
  193      255.007          823
  194      255.481          821
  195      255.954          831
  196      256.427          833
  197      256.901          823
  198      257.374          820
  199      257.847          824
  200       258.32          825
  201      258.793          828
  202      259.266          830
  203      259.739          834
  204      260.211          834
  205      260.684          837
  206      261.157          840
  207      261.629          837
  208      262.102          830
  209      262.574          824
  210      263.046          831
  211      263.519          832
  212      263.991          827
  213      264.463          829
  214      264.935          825
  215      265.407          824
  216      265.879          828
  217      266.351          824
  218      266.823          815
  219      267.295          812
  220      267.766          813
  221      268.238          819
  222       268.71          824
  223      269.181          830
  224      269.653          823
  225      270.124          816
  226      270.595          813
  227      271.066          815
  228      271.538          816
  229      272.009          814
  230       272.48          817
  231      272.951          823
  232      273.422          821
  233      273.892          832
  234      274.363          837
  235      274.834          832
  236      275.305          829
  237      275.775          828
  238      276.246          822
  239      276.716          823
  240      277.186          827
  241      277.657          826
  242      278.127          828
  243      278.597          828
  244      279.067          825
  245      279.537          824
  246      280.007          826
  247      280.477          824
  248      280.947          825
  249      281.417          830
  250      281.886          830
  251      282.356          825
  252      282.825          825
  253      283.295          825
  254      283.764          827
  255      284.234          828
  256      284.703          830
  257      285.172          827
  258      285.641          816
  259       286.11          811
  260      286.579          818
  261      287.048          826
  262      287.517          822
  263      287.986          817
  264      288.454          822
  265      288.923          822
  266      289.392          825
  267       289.86          825
  268      290.329          822
  269      290.797          819
  270      291.265          826
  271      291.734          839
  272      292.202          837
  273       292.67          829
  274      293.138          822
  275      293.606          822
  276      294.074          821
  277      294.541          820
  278      295.009          822
  279      295.477          821
  280      295.944          821
  281      296.412          827
  282      296.879          827
  283      297.347          829
  284      297.814          827
  285      298.281          821
  286      298.749          828
  287      299.216          836
  288      299.683          833
  289       300.15          833
  290      300.616          830
  291      301.083          829
  292       301.55          827
  293      302.017          839
  294      302.483          841
  295       302.95          836
  296      303.416          832
  297      303.883          831
  298      304.349          836
  299      304.815          831
  300      305.281          835
  301      305.748          833
  302      306.214          836
  303       306.68          836
  304      307.146          835
  305      307.611          835
  306      308.077          834
  307      308.543          834
  308      309.008          828
  309      309.474          821
  310      309.939          815
  311      310.405          817
  312       310.87          826
  313      311.335          839
  314        311.8          832
  315      312.266          830
  316      312.731          833
  317      313.196          821
  318       313.66          815
  319      314.125          824
  320       314.59          821
  321      315.055          828
  322      315.519          834
  323      315.984          833
  324      316.448          831
  325      316.913          830
  326      317.377          830
  327      317.841          830
  328      318.305          827
  329      318.769          828
  330      319.233          819
  331      319.697          815
  332      320.161          817
  333      320.625          833
  334      321.089          840
  335      321.552          828
  336      322.016          828
  337      322.479          841
  338      322.943          841
  339      323.406          836
  340      323.869          833
  341      324.333          825
  342      324.796          820
  343      325.259          820
  344      325.722          819
  345      326.185          812
  346      326.647          810
  347       327.11          822
  348      327.573          826
  349      328.035          819
  350      328.498          827
  351       328.96          838
  352      329.423          838
  353      329.885          834
  354      330.347          827
  355       330.81          827
  356      331.272          826
  357      331.734          823
  358      332.196          825
  359      332.657          827
  360      333.119          825
  361      333.581          826
  362      334.043          829
  363      334.504          828
  364      334.966          835
  365      335.427          840
  366      335.888          834
  367       336.35          829
  368      336.811          840
  369      337.272          851
  370      337.733          836
  371      338.194          832
  372      338.655          833
  373      339.115          832
  374      339.576          830
  375      340.037          829
  376      340.497          834
  377      340.958          837
  378      341.418          827
  379      341.879          816
  380      342.339          807
  381      342.799          815
  382      343.259          840
  383      343.719          853
  384      344.179          852
  385      344.639          845
  386      345.099          830
  387      345.559          826
  388      346.018          820
  389      346.478          818
  390      346.937          818
  391      347.397          813
  392      347.856          813
  393      348.315          817
  394      348.774          825
  395      349.234          830
  396      349.693          827
  397      350.152          830
  398       350.61          825
  399      351.069          830
  400      351.528          839
  401      351.987          832
  402      352.445          826
  403      352.904          820
  404      353.362          811
  405       353.82          802
  406      354.279          802
  407      354.737          821
  408      355.195          835
  409      355.653          827
  410      356.111          825
  411      356.569          827
  412      357.027          819
  413      357.484          808
  414      357.942          807
  415      358.399          814
  416      358.857          816
  417      359.314          818
  418      359.772          824
  419      360.229          830
  420      360.686          830
  421      361.143          830
  422        361.6          828
  423      362.057          826
  424      362.514          825
  425      362.971          827
  426      363.427          817
  427      363.884          816
  428       364.34          827
  429      364.797          837
  430      365.253          836
  431      365.709          835
  432      366.166          841
  433      366.622          850
  434      367.078          856
  435      367.534          857
  436       367.99          849
  437      368.445          840
  438      368.901          827
  439      369.357          826
  440      369.812          820
  441      370.268          812
  442      370.723          815
  443      371.179          816
  444      371.634          810
  445      372.089          809
  446      372.544          816
  447      372.999          833
  448      373.454          844
  449      373.909          838
  450      374.364          827
  451      374.818          820
  452      375.273          820
  453      375.727          817
  454      376.182          821
  455      376.636          827
  456       377.09          825
  457      377.545          826
  458      377.999          819
  459      378.453          820
  460      378.907          832
  461      379.361          832
  462      379.814          831
  463      380.268          833
  464      380.722          839
  465      381.175          834
  466      381.629          824
  467      382.082          823
  468      382.535          826
  469      382.989          835
  470      383.442          847
  471      383.895          852
  472      384.348          848
  473      384.801          836
  474      385.253          826
  475      385.706          822
  476      386.159          822
  477      386.611          831
  478      387.064          833
  479      387.516          825
  480      387.968          822
  481      388.421          821
  482      388.873          816
  483      389.325          818
  484      389.777          826
  485      390.229          830
  486      390.681          825
  487      391.132          827
  488      391.584          825
  489      392.035          823
  490      392.487          828
  491      392.938          838
  492       393.39          843
  493      393.841          840
  494      394.292          830
  495      394.743          834
  496      395.194          837
  497      395.645          831
  498      396.096          824
  499      396.546          826
  500      396.997          833
  501      397.448          829
  502      397.898          826
  503      398.349          833
  504      398.799          832
  505      399.249          827
  506      399.699          828
  507      400.149          824
  508      400.599          826
  509      401.049          832
  510      401.499          828
  511      401.949          839
  512      402.398          837
  513      402.848          828
  514      403.297          823
  515      403.747          823
  516      404.196          821
  517      404.645          824
  518      405.094          826
  519      405.543          820
  520      405.992          823
  521      406.441          825
  522       406.89          823
  523      407.339          816
  524      407.787          822
  525      408.236          820
  526      408.684          819
  527      409.132          820
  528      409.581          832
  529      410.029          845
  530      410.477          850
  531      410.925          843
  532      411.373          829
  533      411.821          833
  534      412.269          827
  535      412.716          833
  536      413.164          855
  537      413.611          860
  538      414.059          841
  539      414.506          835
  540      414.953          836
  541        415.4          844
  542      415.847          844
  543      416.294          844
  544      416.741          852
  545      417.188          848
  546      417.635          844
  547      418.081          838
  548      418.528          838
  549      418.974          842
  550      419.421          842
  551      419.867          840
  552      420.313          833
  553      420.759          836
  554      421.205          829
  555      421.651          828
  556      422.097          829
  557      422.543          833
  558      422.989          840
  559      423.434          841
  560       423.88          851
  561      424.325          854
  562       424.77          849
  563      425.216          848
  564      425.661          867
  565      426.106          973
  566      426.551         1171
  567      426.996         1310
  568       427.44         1319
  569      427.885         1239
  570       428.33         1127
  571      428.774         1031
  572      429.219          969
  573      429.663          945
  574      430.107          932
  575      430.551         1036
  576      430.996         1349
  577       431.44         1606
  578      431.883         1622
  579      432.327         1496
  580      432.771         1305
  581      433.215         1139
  582      433.658         1032
  583      434.102          971
  584      434.545          942
  585      434.988          948
  586      435.431          977
  587      435.875         1000
  588      436.318         1044
  589      436.761         1117
  590      437.203         1153
  591      437.646         1139
