scansci Spectrometer Data File
--- Measurement Setting ---
Type: Sample Spectrum
Date: Wed May 26 15:29:25 2021
User: (Reserved by scansci)
Serial: (Reserved by scansci)
Channel: No. 11
Integration Time: 222
Average: 1
Boxcar: 0
Electrical Dark: No-corrected
Time Normalize: (Reserved by scansci)
Dual-beam: (Reserved by scansci)
Reference Ch: (Reserved by scansci)
--- Measurement Data ---
Pixel   Wavelength   Intensity
    0        162.5          864
    1      162.985          862
    2      163.469          856
    3      163.954          851
    4      164.439          860
    5      164.923          873
    6      165.408          873
    7      165.892          861
    8      166.377          859
    9      166.861          869
   10      167.345          867
   11       167.83          861
   12      168.314          866
   13      168.798          858
   14      169.282          849
   15      169.766          846
   16       170.25          846
   17      170.734          847
   18      171.218          847
   19      171.702          844
   20      172.185          847
   21      172.669          857
   22      173.153          849
   23      173.636          848
   24       174.12          842
   25      174.603          866
   26      175.087          887
   27       175.57          873
   28      176.053          863
   29      176.537          868
   30       177.02          869
   31      177.503          865
   32      177.986          864
   33      178.469          857
   34      178.952          870
   35      179.435          871
   36      179.918          876
   37      180.401          884
   38      180.884          874
   39      181.366          869
   40      181.849          864
   41      182.332          860
   42      182.814          857
   43      183.297          857
   44      183.779          847
   45      184.262          847
   46      184.744          846
   47      185.226          853
   48      185.708          856
   49      186.191          853
   50      186.673          854
   51      187.155          850
   52      187.637          857
   53      188.119          855
   54        188.6          851
   55      189.082          848
   56      189.564          849
   57      190.046          846
   58      190.527          844
   59      191.009          838
   60      191.491          838
   61      191.972          846
   62      192.454          849
   63      192.935          857
   64      193.416          863
   65      193.897          863
   66      194.379          872
   67       194.86          870
   68      195.341          861
   69      195.822          857
   70      196.303          853
   71      196.784          854
   72      197.265          860
   73      197.746          857
   74      198.226          849
   75      198.707          854
   76      199.188          866
   77      199.668          863
   78      200.149          852
   79      200.629          850
   80       201.11          859
   81       201.59          861
   82       202.07          855
   83       202.55          853
   84      203.031          857
   85      203.511          853
   86      203.991          849
   87      204.471          850
   88      204.951          846
   89      205.431          833
   90       205.91          832
   91       206.39          839
   92       206.87          843
   93      207.349          848
   94      207.829          852
   95      208.309          847
   96      208.788          841
   97      209.267          843
   98      209.747          852
   99      210.226          856
  100      210.705          854
  101      211.185          855
  102      211.664          850
  103      212.143          844
  104      212.622          844
  105      213.101          843
  106      213.579          849
  107      214.058          849
  108      214.537          843
  109      215.016          852
  110      215.494          859
  111      215.973          861
  112      216.452          864
  113       216.93          866
  114      217.408          874
  115      217.887          869
  116      218.365          863
  117      218.843          862
  118      219.321          862
  119      219.799          868
  120      220.278          873
  121      220.755          875
  122      221.233          871
  123      221.711          861
  124      222.189          857
  125      222.667          856
  126      223.144          861
  127      223.622          864
  128        224.1          872
  129      224.577          886
  130      225.055          885
  131      225.532          878
  132      226.009          871
  133      226.486          865
  134      226.964          861
  135      227.441          852
  136      227.918          842
  137      228.395          849
  138      228.872          856
  139      229.349          857
  140      229.826          861
  141      230.302          863
  142      230.779          853
  143      231.256          861
  144      231.732          861
  145      232.209          860
  146      232.685          864
  147      233.162          857
  148      233.638          852
  149      234.114          852
  150       234.59          852
  151      235.066          856
  152      235.543          853
  153      236.019          858
  154      236.495          864
  155       236.97          859
  156      237.446          851
  157      237.922          861
  158      238.398          852
  159      238.873          853
  160      239.349          850
  161      239.824          844
  162        240.3          842
  163      240.775          838
  164      241.251          849
  165      241.726          853
  166      242.201          852
  167      242.676          853
  168      243.151          850
  169      243.626          854
  170      244.101          858
  171      244.576          850
  172      245.051          851
  173      245.526          851
  174          246          849
  175      246.475          851
  176       246.95          857
  177      247.424          859
  178      247.899          856
  179      248.373          861
  180      248.847          858
  181      249.321          844
  182      249.796          845
  183       250.27          850
  184      250.744          854
  185      251.218          861
  186      251.692          864
  187      252.166          865
  188      252.639          869
  189      253.113          861
  190      253.587          855
  191       254.06          856
  192      254.534          855
  193      255.007          853
  194      255.481          849
  195      255.954          852
  196      256.427          857
  197      256.901          855
  198      257.374          853
  199      257.847          857
  200       258.32          854
  201      258.793          857
  202      259.266          859
  203      259.739          859
  204      260.211          851
  205      260.684          854
  206      261.157          861
  207      261.629          851
  208      262.102          852
  209      262.574          856
  210      263.046          865
  211      263.519          875
  212      263.991          865
  213      264.463          850
  214      264.935          844
  215      265.407          850
  216      265.879          861
  217      266.351          865
  218      266.823          861
  219      267.295          861
  220      267.766          851
  221      268.238          849
  222       268.71          850
  223      269.181          849
  224      269.653          854
  225      270.124          857
  226      270.595          857
  227      271.066          857
  228      271.538          859
  229      272.009          866
  230       272.48          863
  231      272.951          857
  232      273.422          857
  233      273.892          859
  234      274.363          856
  235      274.834          853
  236      275.305          853
  237      275.775          855
  238      276.246          854
  239      276.716          851
  240      277.186          852
  241      277.657          846
  242      278.127          844
  243      278.597          846
  244      279.067          847
  245      279.537          847
  246      280.007          840
  247      280.477          843
  248      280.947          850
  249      281.417          850
  250      281.886          850
  251      282.356          843
  252      282.825          839
  253      283.295          839
  254      283.764          843
  255      284.234          856
  256      284.703          858
  257      285.172          853
  258      285.641          856
  259       286.11          856
  260      286.579          851
  261      287.048          844
  262      287.517          841
  263      287.986          844
  264      288.454          852
  265      288.923          861
  266      289.392          873
  267       289.86          869
  268      290.329          859
  269      290.797          853
  270      291.265          863
  271      291.734          870
  272      292.202          866
  273       292.67          862
  274      293.138          862
  275      293.606          855
  276      294.074          847
  277      294.541          850
  278      295.009          853
  279      295.477          859
  280      295.944          861
  281      296.412          868
  282      296.879          873
  283      297.347          868
  284      297.814          866
  285      298.281          857
  286      298.749          855
  287      299.216          855
  288      299.683          848
  289       300.15          851
  290      300.616          856
  291      301.083          859
  292       301.55          857
  293      302.017          852
  294      302.483          850
  295       302.95          849
  296      303.416          848
  297      303.883          851
  298      304.349          857
  299      304.815          857
  300      305.281          855
  301      305.748          859
  302      306.214          869
  303       306.68          868
  304      307.146          860
  305      307.611          851
  306      308.077          845
  307      308.543          844
  308      309.008          839
  309      309.474          841
  310      309.939          846
  311      310.405          845
  312       310.87          842
  313      311.335          841
  314        311.8          853
  315      312.266          855
  316      312.731          849
  317      313.196          850
  318       313.66          858
  319      314.125          864
  320       314.59          859
  321      315.055          847
  322      315.519          850
  323      315.984          859
  324      316.448          861
  325      316.913          864
  326      317.377          866
  327      317.841          871
  328      318.305          910
  329      318.769          955
  330      319.233          957
  331      319.697          934
  332      320.161          910
  333      320.625          903
  334      321.089          901
  335      321.552          893
  336      322.016          881
  337      322.479          887
  338      322.943          889
  339      323.406          864
  340      323.869          859
  341      324.333          866
  342      324.796          871
  343      325.259          864
  344      325.722          858
  345      326.185          853
  346      326.647          856
  347       327.11          862
  348      327.573          867
  349      328.035          864
  350      328.498          860
  351       328.96          859
  352      329.423          875
  353      329.885          879
  354      330.347          876
  355       330.81          869
  356      331.272          860
  357      331.734          865
  358      332.196          860
  359      332.657          850
  360      333.119          851
  361      333.581          854
  362      334.043          858
  363      334.504          847
  364      334.966          853
  365      335.427          855
  366      335.888          844
  367       336.35          847
  368      336.811          867
  369      337.272          875
  370      337.733          863
  371      338.194          857
  372      338.655          856
  373      339.115          859
  374      339.576          864
  375      340.037          867
  376      340.497          872
  377      340.958          880
  378      341.418          873
  379      341.879          870
  380      342.339          866
  381      342.799          860
  382      343.259          879
  383      343.719          893
  384      344.179          883
  385      344.639          875
  386      345.099          862
  387      345.559          852
  388      346.018          852
  389      346.478          857
  390      346.937          863
  391      347.397          864
  392      347.856          862
  393      348.315          858
  394      348.774          857
  395      349.234          861
  396      349.693          860
  397      350.152          855
  398       350.61          860
  399      351.069          867
  400      351.528          868
  401      351.987          855
  402      352.445          849
  403      352.904          853
  404      353.362          858
  405       353.82          866
  406      354.279          870
  407      354.737          879
  408      355.195          882
  409      355.653          870
  410      356.111          873
  411      356.569          879
  412      357.027          877
  413      357.484          868
  414      357.942          862
  415      358.399          861
  416      358.857          854
  417      359.314          849
  418      359.772          847
  419      360.229          847
  420      360.686          849
  421      361.143          857
  422        361.6          867
  423      362.057          872
  424      362.514          873
  425      362.971          871
  426      363.427          866
  427      363.884          863
  428       364.34          859
  429      364.797          854
  430      365.253          857
  431      365.709          862
  432      366.166          867
  433      366.622          864
  434      367.078          864
  435      367.534          870
  436       367.99          873
  437      368.445          875
  438      368.901          865
  439      369.357          861
  440      369.812          858
  441      370.268          856
  442      370.723          866
  443      371.179          863
  444      371.634          857
  445      372.089          860
  446      372.544          860
  447      372.999          869
  448      373.454          879
  449      373.909          877
  450      374.364          869
  451      374.818          862
  452      375.273          862
  453      375.727          861
  454      376.182          860
  455      376.636          864
  456       377.09          865
  457      377.545          867
  458      377.999          872
  459      378.453          871
  460      378.907          875
  461      379.361          867
  462      379.814          861
  463      380.268          869
  464      380.722          876
  465      381.175          878
  466      381.629          885
  467      382.082          898
  468      382.535          897
  469      382.989          885
  470      383.442          882
  471      383.895          891
  472      384.348          901
  473      384.801          901
  474      385.253          903
  475      385.706          911
  476      386.159          920
  477      386.611          933
  478      387.064          985
  479      387.516         1102
  480      387.968         1483
  481      388.421         3067
  482      388.873         5985
  483      389.325         7631
  484      389.777         6583
  485      390.229         4609
  486      390.681         3161
  487      391.132         2271
  488      391.584         1726
  489      392.035         1397
  490      392.487         1206
  491      392.938         1088
  492       393.39         1019
  493      393.841          981
  494      394.292          955
  495      394.743          930
  496      395.194          925
  497      395.645          921
  498      396.096          931
  499      396.546          959
  500      396.997          966
  501      397.448          942
  502      397.898          921
  503      398.349          908
  504      398.799          894
  505      399.249          884
  506      399.699          887
  507      400.149          893
  508      400.599          882
  509      401.049          873
  510      401.499          876
  511      401.949          894
  512      402.398          945
  513      402.848         1005
  514      403.297         1024
  515      403.747          986
  516      404.196          940
  517      404.645          914
  518      405.094          900
  519      405.543          888
  520      405.992          880
  521      406.441          873
  522       406.89          864
  523      407.339          855
  524      407.787          864
  525      408.236          872
  526      408.684          874
  527      409.132          870
  528      409.581          875
  529      410.029          878
  530      410.477          869
  531      410.925          865
  532      411.373          867
  533      411.821          878
  534      412.269          896
  535      412.716          908
  536      413.164          919
  537      413.611          917
  538      414.059          901
  539      414.506          895
  540      414.953          890
  541        415.4          881
  542      415.847          873
  543      416.294          869
  544      416.741          869
  545      417.188          873
  546      417.635          868
  547      418.081          871
  548      418.528          873
  549      418.974          876
  550      419.421          874
  551      419.867          862
  552      420.313          860
  553      420.759          857
  554      421.205          854
  555      421.651          856
  556      422.097          858
  557      422.543          857
  558      422.989          860
  559      423.434          865
  560       423.88          868
  561      424.325          870
  562       424.77          869
  563      425.216          868
  564      425.661          870
  565      426.106          870
  566      426.551          867
  567      426.996          868
  568       427.44          868
  569      427.885          863
  570       428.33          865
  571      428.774          868
  572      429.219          868
  573      429.663          873
  574      430.107          873
  575      430.551          864
  576      430.996          865
  577       431.44          865
  578      431.883          858
  579      432.327          856
  580      432.771          853
  581      433.215          855
  582      433.658          865
  583      434.102          876
  584      434.545          869
  585      434.988          859
  586      435.431          861
  587      435.875          858
  588      436.318          860
  589      436.761          864
  590      437.203          872
  591      437.646          880
