scansci Spectrometer Data File
--- Measurement Setting ---
Type: Sample Spectrum
Date: Wed May 26 15:37:46 2021
User: (Reserved by scansci)
Serial: (Reserved by scansci)
Channel: No. 11
Integration Time: 222
Average: 1
Boxcar: 0
Electrical Dark: No-corrected
Time Normalize: (Reserved by scansci)
Dual-beam: (Reserved by scansci)
Reference Ch: (Reserved by scansci)
--- Measurement Data ---
Pixel   Wavelength   Intensity
    0        162.5          813
    1      162.985          824
    2      163.469          834
    3      163.954          835
    4      164.439          841
    5      164.923          846
    6      165.408          841
    7      165.892          833
    8      166.377          831
    9      166.861          842
   10      167.345          850
   11       167.83          841
   12      168.314          837
   13      168.798          835
   14      169.282          840
   15      169.766          842
   16       170.25          832
   17      170.734          824
   18      171.218          822
   19      171.702          819
   20      172.185          829
   21      172.669          840
   22      173.153          838
   23      173.636          836
   24       174.12          837
   25      174.603          861
   26      175.087          870
   27       175.57          849
   28      176.053          849
   29      176.537          847
   30       177.02          838
   31      177.503          834
   32      177.986          829
   33      178.469          826
   34      178.952          832
   35      179.435          841
   36      179.918          863
   37      180.401          877
   38      180.884          865
   39      181.366          856
   40      181.849          846
   41      182.332          846
   42      182.814          848
   43      183.297          841
   44      183.779          841
   45      184.262          842
   46      184.744          841
   47      185.226          831
   48      185.708          829
   49      186.191          832
   50      186.673          827
   51      187.155          823
   52      187.637          827
   53      188.119          825
   54        188.6          829
   55      189.082          836
   56      189.564          842
   57      190.046          840
   58      190.527          838
   59      191.009          833
   60      191.491          837
   61      191.972          843
   62      192.454          849
   63      192.935          841
   64      193.416          833
   65      193.897          840
   66      194.379          849
   67       194.86          845
   68      195.341          840
   69      195.822          845
   70      196.303          845
   71      196.784          855
   72      197.265          854
   73      197.746          841
   74      198.226          838
   75      198.707          838
   76      199.188          845
   77      199.668          852
   78      200.149          853
   79      200.629          854
   80       201.11          854
   81       201.59          854
   82       202.07          844
   83       202.55          843
   84      203.031          845
   85      203.511          836
   86      203.991          834
   87      204.471          838
   88      204.951          843
   89      205.431          840
   90       205.91          841
   91       206.39          844
   92       206.87          841
   93      207.349          844
   94      207.829          855
   95      208.309          851
   96      208.788          841
   97      209.267          841
   98      209.747          844
   99      210.226          835
  100      210.705          832
  101      211.185          849
  102      211.664          849
  103      212.143          843
  104      212.622          839
  105      213.101          831
  106      213.579          834
  107      214.058          835
  108      214.537          829
  109      215.016          820
  110      215.494          820
  111      215.973          838
  112      216.452          845
  113       216.93          834
  114      217.408          834
  115      217.887          832
  116      218.365          833
  117      218.843          835
  118      219.321          841
  119      219.799          843
  120      220.278          846
  121      220.755          851
  122      221.233          850
  123      221.711          839
  124      222.189          839
  125      222.667          838
  126      223.144          838
  127      223.622          844
  128        224.1          841
  129      224.577          837
  130      225.055          838
  131      225.532          844
  132      226.009          852
  133      226.486          854
  134      226.964          849
  135      227.441          841
  136      227.918          836
  137      228.395          833
  138      228.872          834
  139      229.349          824
  140      229.826          829
  141      230.302          837
  142      230.779          834
  143      231.256          840
  144      231.732          847
  145      232.209          847
  146      232.685          847
  147      233.162          843
  148      233.638          829
  149      234.114          821
  150       234.59          825
  151      235.066          832
  152      235.543          838
  153      236.019          838
  154      236.495          840
  155       236.97          843
  156      237.446          835
  157      237.922          829
  158      238.398          834
  159      238.873          839
  160      239.349          844
  161      239.824          850
  162        240.3          845
  163      240.775          840
  164      241.251          837
  165      241.726          834
  166      242.201          840
  167      242.676          845
  168      243.151          834
  169      243.626          833
  170      244.101          843
  171      244.576          835
  172      245.051          819
  173      245.526          811
  174          246          813
  175      246.475          823
  176       246.95          824
  177      247.424          823
  178      247.899          826
  179      248.373          825
  180      248.847          824
  181      249.321          820
  182      249.796          823
  183       250.27          827
  184      250.744          824
  185      251.218          829
  186      251.692          835
  187      252.166          837
  188      252.639          839
  189      253.113          834
  190      253.587          829
  191       254.06          830
  192      254.534          839
  193      255.007          844
  194      255.481          832
  195      255.954          829
  196      256.427          832
  197      256.901          830
  198      257.374          828
  199      257.847          822
  200       258.32          822
  201      258.793          832
  202      259.266          838
  203      259.739          842
  204      260.211          841
  205      260.684          843
  206      261.157          850
  207      261.629          842
  208      262.102          829
  209      262.574          819
  210      263.046          821
  211      263.519          824
  212      263.991          826
  213      264.463          822
  214      264.935          823
  215      265.407          830
  216      265.879          841
  217      266.351          844
  218      266.823          843
  219      267.295          846
  220      267.766          847
  221      268.238          842
  222       268.71          847
  223      269.181          839
  224      269.653          834
  225      270.124          834
  226      270.595          836
  227      271.066          837
  228      271.538          844
  229      272.009          839
  230       272.48          826
  231      272.951          821
  232      273.422          821
  233      273.892          837
  234      274.363          838
  235      274.834          826
  236      275.305          827
  237      275.775          827
  238      276.246          832
  239      276.716          837
  240      277.186          846
  241      277.657          845
  242      278.127          831
  243      278.597          827
  244      279.067          834
  245      279.537          834
  246      280.007          832
  247      280.477          831
  248      280.947          822
  249      281.417          822
  250      281.886          834
  251      282.356          837
  252      282.825          832
  253      283.295          831
  254      283.764          836
  255      284.234          848
  256      284.703          846
  257      285.172          844
  258      285.641          836
  259       286.11          825
  260      286.579          828
  261      287.048          828
  262      287.517          826
  263      287.986          829
  264      288.454          826
  265      288.923          815
  266      289.392          816
  267       289.86          829
  268      290.329          836
  269      290.797          832
  270      291.265          833
  271      291.734          846
  272      292.202          848
  273       292.67          832
  274      293.138          829
  275      293.606          837
  276      294.074          835
  277      294.541          830
  278      295.009          824
  279      295.477          821
  280      295.944          825
  281      296.412          829
  282      296.879          829
  283      297.347          829
  284      297.814          832
  285      298.281          825
  286      298.749          825
  287      299.216          829
  288      299.683          827
  289       300.15          836
  290      300.616          838
  291      301.083          830
  292       301.55          833
  293      302.017          843
  294      302.483          845
  295       302.95          832
  296      303.416          829
  297      303.883          823
  298      304.349          828
  299      304.815          831
  300      305.281          829
  301      305.748          828
  302      306.214          835
  303       306.68          840
  304      307.146          833
  305      307.611          831
  306      308.077          836
  307      308.543          841
  308      309.008          837
  309      309.474          830
  310      309.939          826
  311      310.405          830
  312       310.87          830
  313      311.335          830
  314        311.8          838
  315      312.266          836
  316      312.731          833
  317      313.196          830
  318       313.66          841
  319      314.125          851
  320       314.59          841
  321      315.055          828
  322      315.519          832
  323      315.984          839
  324      316.448          837
  325      316.913          832
  326      317.377          821
  327      317.841          828
  328      318.305          829
  329      318.769          832
  330      319.233          831
  331      319.697          819
  332      320.161          825
  333      320.625          841
  334      321.089          845
  335      321.552          841
  336      322.016          845
  337      322.479          855
  338      322.943          857
  339      323.406          847
  340      323.869          845
  341      324.333          847
  342      324.796          849
  343      325.259          840
  344      325.722          832
  345      326.185          829
  346      326.647          835
  347       327.11          843
  348      327.573          840
  349      328.035          820
  350      328.498          813
  351       328.96          821
  352      329.423          836
  353      329.885          832
  354      330.347          823
  355       330.81          832
  356      331.272          841
  357      331.734          836
  358      332.196          829
  359      332.657          831
  360      333.119          835
  361      333.581          840
  362      334.043          850
  363      334.504          849
  364      334.966          846
  365      335.427          841
  366      335.888          833
  367       336.35          832
  368      336.811          836
  369      337.272          832
  370      337.733          832
  371      338.194          835
  372      338.655          839
  373      339.115          837
  374      339.576          830
  375      340.037          835
  376      340.497          847
  377      340.958          841
  378      341.418          831
  379      341.879          830
  380      342.339          832
  381      342.799          828
  382      343.259          853
  383      343.719          867
  384      344.179          851
  385      344.639          849
  386      345.099          850
  387      345.559          844
  388      346.018          834
  389      346.478          839
  390      346.937          840
  391      347.397          835
  392      347.856          827
  393      348.315          827
  394      348.774          832
  395      349.234          830
  396      349.693          821
  397      350.152          819
  398       350.61          819
  399      351.069          816
  400      351.528          829
  401      351.987          832
  402      352.445          824
  403      352.904          822
  404      353.362          825
  405       353.82          826
  406      354.279          830
  407      354.737          841
  408      355.195          859
  409      355.653          858
  410      356.111          855
  411      356.569          847
  412      357.027          847
  413      357.484          848
  414      357.942          841
  415      358.399          837
  416      358.857          841
  417      359.314          832
  418      359.772          822
  419      360.229          829
  420      360.686          837
  421      361.143          837
  422        361.6          832
  423      362.057          832
  424      362.514          839
  425      362.971          840
  426      363.427          838
  427      363.884          841
  428       364.34          850
  429      364.797          853
  430      365.253          850
  431      365.709          841
  432      366.166          837
  433      366.622          838
  434      367.078          837
  435      367.534          838
  436       367.99          843
  437      368.445          846
  438      368.901          842
  439      369.357          845
  440      369.812          839
  441      370.268          836
  442      370.723          843
  443      371.179          843
  444      371.634          838
  445      372.089          836
  446      372.544          845
  447      372.999          849
  448      373.454          847
  449      373.909          841
  450      374.364          832
  451      374.818          820
  452      375.273          817
  453      375.727          819
  454      376.182          825
  455      376.636          825
  456       377.09          828
  457      377.545          834
  458      377.999          838
  459      378.453          833
  460      378.907          835
  461      379.361          842
  462      379.814          834
  463      380.268          832
  464      380.722          834
  465      381.175          828
  466      381.629          832
  467      382.082          841
  468      382.535          843
  469      382.989          840
  470      383.442          838
  471      383.895          842
  472      384.348          841
  473      384.801          826
  474      385.253          829
  475      385.706          826
  476      386.159          820
  477      386.611          822
  478      387.064          825
  479      387.516          825
  480      387.968          827
  481      388.421          837
  482      388.873          833
  483      389.325          824
  484      389.777          827
  485      390.229          830
  486      390.681          825
  487      391.132          824
  488      391.584          825
  489      392.035          830
  490      392.487          838
  491      392.938          846
  492       393.39          857
  493      393.841          875
  494      394.292          887
  495      394.743          886
  496      395.194          877
  497      395.645          864
  498      396.096          848
  499      396.546          831
  500      396.997          835
  501      397.448          840
  502      397.898          837
  503      398.349          827
  504      398.799          824
  505      399.249          824
  506      399.699          827
  507      400.149          828
  508      400.599          830
  509      401.049          835
  510      401.499          826
  511      401.949          826
  512      402.398          833
  513      402.848          833
  514      403.297          855
  515      403.747          878
  516      404.196          880
  517      404.645          867
  518      405.094          857
  519      405.543          849
  520      405.992          845
  521      406.441          842
  522       406.89          837
  523      407.339          832
  524      407.787          826
  525      408.236          816
  526      408.684          810
  527      409.132          817
  528      409.581          835
  529      410.029          844
  530      410.477          847
  531      410.925          857
  532      411.373          853
  533      411.821          851
  534      412.269          853
  535      412.716          856
  536      413.164          880
  537      413.611          890
  538      414.059          893
  539      414.506          960
  540      414.953         1103
  541        415.4         1206
  542      415.847         1203
  543      416.294         1135
  544      416.741         1068
  545      417.188         1029
  546      417.635         1006
  547      418.081         1028
  548      418.528         1119
  549      418.974         1284
  550      419.421         1408
  551      419.867         1393
  552      420.313         1286
  553      420.759         1146
  554      421.205         1035
  555      421.651          961
  556      422.097          920
  557      422.543          897
  558      422.989          885
  559      423.434          869
  560       423.88          869
  561      424.325          893
  562       424.77          940
  563      425.216         1005
  564      425.661         1068
  565      426.106         1138
  566      426.551         1160
  567      426.996         1117
  568       427.44         1049
  569      427.885          987
  570       428.33          945
  571      428.774          946
  572      429.219          976
  573      429.663          996
  574      430.107          979
  575      430.551          942
  576      430.996          921
  577       431.44          907
  578      431.883          907
  579      432.327          950
  580      432.771         1000
  581      433.215         1012
  582      433.658          999
  583      434.102          981
  584      434.545          956
  585      434.988          922
  586      435.431          897
  587      435.875          874
  588      436.318          867
  589      436.761          862
  590      437.203          860
  591      437.646          848
