scansci Spectrometer Data File
--- Measurement Setting ---
Type: Sample Spectrum
Date: Wed May 26 15:51:20 2021
User: (Reserved by scansci)
Serial: (Reserved by scansci)
Channel: No. 11
Integration Time: 62
Average: 1
Boxcar: 0
Electrical Dark: No-corrected
Time Normalize: (Reserved by scansci)
Dual-beam: (Reserved by scansci)
Reference Ch: (Reserved by scansci)
--- Measurement Data ---
Pixel   Wavelength   Intensity
    0        344.4          963
    1      344.867          963
    2      345.334          966
    3      345.801          956
    4      346.268          946
    5      346.735          949
    6      347.202          948
    7      347.669          949
    8      348.135          954
    9      348.602          963
   10      349.068          962
   11      349.535          955
   12      350.001          957
   13      350.467          957
   14      350.933          954
   15      351.399          953
   16      351.866          957
   17      352.331          961
   18      352.797          954
   19      353.263          952
   20      353.729          959
   21      354.194          957
   22       354.66          951
   23      355.126          953
   24      355.591          957
   25      356.056          958
   26      356.522          957
   27      356.987          957
   28      357.452          953
   29      357.917          953
   30      358.382          957
   31      358.847          959
   32      359.312          958
   33      359.776          959
   34      360.241          960
   35      360.706          956
   36       361.17          954
   37      361.634          961
   38      362.099          965
   39      362.563          962
   40      363.027          956
   41      363.491          956
   42      363.955          964
   43      364.419          969
   44      364.883          967
   45      365.347          963
   46      365.811          966
   47      366.274          970
   48      366.738          970
   49      367.201          969
   50      367.665          973
   51      368.128          980
   52      368.592          981
   53      369.055          979
   54      369.518          976
   55      369.981          970
   56      370.444          965
   57      370.907          968
   58       371.37          968
   59      371.832          965
   60      372.295          964
   61      372.757          966
   62       373.22          965
   63      373.682          963
   64      374.145          958
   65      374.607          951
   66      375.069          950
   67      375.531          952
   68      375.993          949
   69      376.455          947
   70      376.917          949
   71      377.379          952
   72      377.841          960
   73      378.302          966
   74      378.764          964
   75      379.225          964
   76      379.687          964
   77      380.148          964
   78      380.609          960
   79      381.071          956
   80      381.532          959
   81      381.993          957
   82      382.454          952
   83      382.915          954
   84      383.375          962
   85      383.836          958
   86      384.297          963
   87      384.757          964
   88      385.218          961
   89      385.678          959
   90      386.138          959
   91      386.599          959
   92      387.059          959
   93      387.519          959
   94      387.979          958
   95      388.439          955
   96      388.899          954
   97      389.358          960
   98      389.818          965
   99      390.278          963
  100      390.737          960
  101      391.197          961
  102      391.656          961
  103      392.115          964
  104      392.575          965
  105      393.034          963
  106      393.493          957
  107      393.952          949
  108      394.411          947
  109       394.87          948
  110      395.328          945
  111      395.787          948
  112      396.246          954
  113      396.704          952
  114      397.163          948
  115      397.621          948
  116      398.079          945
  117      398.537          949
  118      398.995          957
  119      399.454          956
  120      399.911          951
  121      400.369          951
  122      400.827          950
  123      401.285          948
  124      401.743          949
  125        402.2          955
  126      402.658          962
  127      403.115          961
  128      403.572          962
  129       404.03          962
  130      404.487          958
  131      404.944          961
  132      405.401          966
  133      405.858          970
  134      406.315          969
  135      406.771          964
  136      407.228          962
  137      407.685          960
  138      408.141          956
  139      408.598          952
  140      409.054          948
  141       409.51          946
  142      409.967          953
  143      410.423          955
  144      410.879          960
  145      411.335          958
  146      411.791          955
  147      412.246          958
  148      412.702          959
  149      413.158          954
  150      413.613          954
  151      414.069          956
  152      414.524          959
  153       414.98          960
  154      415.435          961
  155       415.89          966
  156      416.345          965
  157        416.8          960
  158      417.255          959
  159       417.71          959
  160      418.165          958
  161      418.619          961
  162      419.074          967
  163      419.529          970
  164      419.983          967
  165      420.437          963
  166      420.892          966
  167      421.346          968
  168        421.8          971
  169      422.254          968
  170      422.708          970
  171      423.162          973
  172      423.616          972
  173       424.07          966
  174      424.523          955
  175      424.977          962
  176       425.43          968
  177      425.884          961
  178      426.337          962
  179       426.79          966
  180      427.243          964
  181      427.697          963
  182       428.15          967
  183      428.602          955
  184      429.055          947
  185      429.508          954
  186      429.961          955
  187      430.413          957
  188      430.866          964
  189      431.318          968
  190      431.771          970
  191      432.223          966
  192      432.675          968
  193      433.127          967
  194      433.579          965
  195      434.031          972
  196      434.483          972
  197      434.935          970
  198      435.387          968
  199      435.838          966
  200       436.29          961
  201      436.741          959
  202      437.193          955
  203      437.644          950
  204      438.095          954
  205      438.546          958
  206      438.997          957
  207      439.448          959
  208      439.899          959
  209       440.35          956
  210      440.801          959
  211      441.251          959
  212      441.702          955
  213      442.152          952
  214      442.603          958
  215      443.053          964
  216      443.503          965
  217      443.954          965
  218      444.404          964
  219      444.854          954
  220      445.304          948
  221      445.753          949
  222      446.203          949
  223      446.653          950
  224      447.102          949
  225      447.552          948
  226      448.001          948
  227      448.451          953
  228        448.9          956
  229      449.349          957
  230      449.798          958
  231      450.247          957
  232      450.696          963
  233      451.145          967
  234      451.594          968
  235      452.042          968
  236      452.491          971
  237      452.939          973
  238      453.388          973
  239      453.836          971
  240      454.285          970
  241      454.733          966
  242      455.181          958
  243      455.629          953
  244      456.077          958
  245      456.525          963
  246      456.972          959
  247       457.42          958
  248      457.868          964
  249      458.315          970
  250      458.763          965
  251       459.21          963
  252      459.657          969
  253      460.104          965
  254      460.552          956
  255      460.999          955
  256      461.446          956
  257      461.892          955
  258      462.339          959
  259      462.786          967
  260      463.233          966
  261      463.679          969
  262      464.125          971
  263      464.572          967
  264      465.018          964
  265      465.464          963
  266       465.91          970
  267      466.356          974
  268      466.802          967
  269      467.248          962
  270      467.694          962
  271       468.14          954
  272      468.585          952
  273      469.031          954
  274      469.476          948
  275      469.922          949
  276      470.367          945
  277      470.812          939
  278      471.257          943
  279      471.702          951
  280      472.147          955
  281      472.592          958
  282      473.037          960
  283      473.482          958
  284      473.926          952
  285      474.371          955
  286      474.815          963
  287      475.259          958
  288      475.704          953
  289      476.148          957
  290      476.592          960
  291      477.036          967
  292       477.48          955
  293      477.924          959
  294      478.368          969
  295      478.811          971
  296      479.255          969
  297      479.698          965
  298      480.142          959
  299      480.585          949
  300      481.028          948
  301      481.472          960
  302      481.915          972
  303      482.358          971
  304      482.801          968
  305      483.244          965
  306      483.686          960
  307      484.129          958
  308      484.572          954
  309      485.014          957
  310      485.456          973
  311      485.899          969
  312      486.341          961
  313      486.783          957
  314      487.225          957
  315      487.667          960
  316      488.109          961
  317      488.551          961
  318      488.993          960
  319      489.434          954
  320      489.876          948
  321      490.318          948
  322      490.759          950
  323        491.2          950
  324      491.641          954
  325      492.083          961
  326      492.524          967
  327      492.965          967
  328      493.406          965
  329      493.846          963
  330      494.287          963
  331      494.728          958
  332      495.168          956
  333      495.609          955
  334      496.049          950
  335      496.489          951
  336       496.93          953
  337       497.37          957
  338       497.81          960
  339       498.25          957
  340       498.69          955
  341      499.129          956
  342      499.569          965
  343      500.009          973
  344      500.448          971
  345      500.888          966
  346      501.327          964
  347      501.766          964
  348      502.206          972
  349      502.645          975
  350      503.084          975
  351      503.523          974
  352      503.961          968
  353        504.4          963
  354      504.839          960
  355      505.277          957
  356      505.716          953
  357      506.154          948
  358      506.593          955
  359      507.031          964
  360      507.469          969
  361      507.907          963
  362      508.345          957
  363      508.783          955
  364      509.221          954
  365      509.659          955
  366      510.096          960
  367      510.534          959
  368      510.971          961
  369      511.409          963
  370      511.846          963
  371      512.283          959
  372       512.72          961
  373      513.157          963
  374      513.594          964
  375      514.031          968
  376      514.468          971
  377      514.905          977
  378      515.341          973
  379      515.778          963
  380      516.214          959
  381       516.65          962
  382      517.087          961
  383      517.523          962
  384      517.959          967
  385      518.395          966
  386      518.831          969
  387      519.267          970
  388      519.702          973
  389      520.138          976
  390      520.574          971
  391      521.009          963
  392      521.444          957
  393       521.88          964
  394      522.315          968
  395       522.75          970
  396      523.185          972
  397       523.62          970
  398      524.055          968
  399       524.49          968
  400      524.924          968
  401      525.359          964
  402      525.794          962
  403      526.228          966
  404      526.662          966
  405      527.097          967
  406      527.531          969
  407      527.965          973
  408      528.399          975
  409      528.833          971
  410      529.267          967
  411        529.7          973
  412      530.134          976
  413      530.568          974
  414      531.001          965
  415      531.434          963
  416      531.868          967
  417      532.301          969
  418      532.734          965
  419      533.167          965
  420        533.6          966
  421      534.033          964
  422      534.466          965
  423      534.898          971
  424      535.331          976
  425      535.763          979
  426      536.196          986
  427      536.628          990
  428       537.06          985
  429      537.493          976
  430      537.925          975
  431      538.357          984
  432      538.788          989
  433       539.22          988
  434      539.652          993
  435      540.084         1000
  436      540.515         1010
  437      540.947         1020
  438      541.378         1026
  439      541.809         1024
  440       542.24         1025
  441      542.672         1031
  442      543.103         1033
  443      543.533         1043
  444      543.964         1056
  445      544.395         1100
  446      544.826         1343
  447      545.256         2163
  448      545.687         3302
  449      546.117         4125
  450      546.547         4344
  451      546.978         3731
  452      547.408         2789
  453      547.838         2110
  454      548.268         1689
  455      548.698         1440
  456      549.127         1288
  457      549.557         1195
  458      549.987         1148
  459      550.416         1105
  460      550.846         1080
  461      551.275         1065
  462      551.704         1053
  463      552.133         1039
  464      552.562         1033
  465      552.991         1039
  466       553.42         1029
  467      553.849         1018
  468      554.278         1016
  469      554.706         1010
  470      555.135         1009
  471      555.563         1016
  472      555.991         1022
  473       556.42         1013
  474      556.848         1003
  475      557.276          999
  476      557.704         1002
  477      558.132         1000
  478       558.56          994
  479      558.987          989
  480      559.415          988
  481      559.843          989
  482       560.27          987
  483      560.697          990
  484      561.125          996
  485      561.552         1001
  486      561.979          999
  487      562.406          996
  488      562.833          994
  489       563.26          993
  490      563.686          999
  491      564.113          997
  492       564.54          990
  493      564.966          994
  494      565.392          993
  495      565.819          990
  496      566.245          984
  497      566.671          981
  498      567.097          976
  499      567.523          966
  500      567.949          967
  501      568.374          973
  502        568.8          979
  503      569.226          977
  504      569.651          983
  505      570.077          989
  506      570.502          983
  507      570.927          980
  508      571.352          980
  509      571.777          977
  510      572.202          978
  511      572.627          970
  512      573.052          970
  513      573.476          975
  514      573.901          983
  515      574.325          993
  516       574.75          992
  517      575.174          997
  518      575.598         1024
  519      576.022         1137
  520      576.446         1310
  521       576.87         1440
  522      577.294         1512
  523      577.718         1491
  524      578.142         1456
  525      578.565         1509
  526      578.989         1581
  527      579.412         1602
  528      579.835         1509
  529      580.259         1338
  530      580.682         1200
  531      581.105         1119
  532      581.528         1066
  533      581.951         1033
  534      582.373         1020
  535      582.796         1009
  536      583.219          995
  537      583.641          988
  538      584.063          995
  539      584.486          997
  540      584.908          993
  541       585.33          992
  542      585.752          994
  543      586.174          985
  544      586.596          978
  545      587.018          981
  546      587.439          983
  547      587.861          980
  548      588.282          980
  549      588.704          979
  550      589.125          977
  551      589.546          981
  552      589.967          983
  553      590.388          986
  554      590.809          993
  555       591.23          992
  556      591.651          991
  557      592.071          989
  558      592.492          988
  559      592.912          986
  560      593.333          989
  561      593.753          985
  562      594.173          980
  563      594.593          970
  564      595.013          967
  565      595.433          972
  566      595.853          971
  567      596.273          971
  568      596.693          975
  569      597.112          981
  570      597.532          983
  571      597.951          984
  572       598.37          984
  573      598.789          981
  574      599.208          977
  575      599.627          980
  576      600.046          977
  577      600.465          975
  578      600.884          974
  579      601.303          970
  580      601.721          971
  581      602.139          969
  582      602.558          967
  583      602.976          971
  584      603.394          978
  585      603.812          982
  586       604.23          978
  587      604.648          978
  588      605.066          982
  589      605.484          977
  590      605.901          976
  591      606.319          985
